Filename	3-methyl-4-nitrophenol
Instrument name	DSC2A-00807 (172.23.165.2)
Operator	Petroc Shelley
rundate	5/3/2019
Sample name	3-methyl-4-nitrophenol
proceduresegments	Ramp 10 °C/min to 140.00 °C
[step]
Ramp 10 °C/min to 140.00 °C
Time	Temperature	Heat Flow (Normalized)
min	°C	W/g
0.00000		
1.66667e-3		
3.33333e-3		
5.00000e-3		
6.66667e-3		
8.33333e-3	30.409	
0.0100000	30.411	
0.0116667	30.413	
0.0133333	30.415	
0.0150000	30.418	
0.0166667	30.421	
0.0183333	30.422	
0.0200000	30.424	
0.0216667	30.427	
0.0233333	30.429	
0.0250000	30.432	
0.0266667	30.434	
0.0283333	30.437	
0.0300000	30.439	
0.0316667	30.441	
0.0333333	30.443	
0.0350000	30.446	
0.0366667	30.449	
0.0383333	30.451	
0.0400000	30.454	
0.0416667	30.458	
0.0433333	30.461	
0.0450000	30.463	
0.0466667	30.466	
0.0483333	30.470	
0.0500000	30.473	
0.0516667	30.476	
0.0533333	30.479	
0.0550000	30.483	
0.0566667	30.487	
0.0583333	30.490	-0.700347
0.0600000	30.494	-0.700308
0.0616667	30.498	-0.700263
0.0633333	30.503	-0.700179
0.0650000	30.507	-0.700044
0.0666667	30.511	-0.699967
0.0683333	30.516	-0.699901
0.0700000	30.521	-0.699840
0.0716667	30.526	-0.699804
0.0733333	30.530	-0.699804
0.0750000	30.535	-0.699825
0.0766667	30.541	-0.699865
0.0783333	30.547	-0.699956
0.0800000	30.554	-0.700251
0.0816667	30.560	-0.701043
0.0833333	30.565	-0.702400
0.0850000	30.572	-0.704994
0.0866667	30.578	-0.709238
0.0883333	30.584	-0.715706
0.0900000	30.592	-0.724559
0.0916667	30.599	-0.738064
0.0933333	30.606	-0.752145
0.0950000	30.614	-0.767352
0.0966667	30.621	-0.780799
0.0983333	30.628	-0.793069
0.100000	30.637	-0.805711
0.101667	30.646	-0.814629
0.103333	30.654	-0.823245
0.105000	30.662	-0.833747
0.106667	30.670	-0.843059
0.108333	30.679	-0.852396
0.110000	30.688	-0.863502
0.111667	30.697	-0.872174
0.113333	30.707	-0.883197
0.115000	30.717	-0.894027
0.116667	30.726	-0.904782
0.118333	30.737	-0.914281
0.120000	30.745	-0.924372
0.121667	30.755	-0.933402
0.123333	30.766	-0.942693
0.125000	30.776	-0.951137
0.126667	30.787	-0.958953
0.128333	30.797	-0.966818
0.130000	30.808	-0.973122
0.131667	30.819	-0.981603
0.133333	30.830	-0.990963
0.135000	30.840	-0.997426
0.136667	30.851	-1.00529
0.138333	30.862	-1.01413
0.140000	30.873	-1.01901
0.141667	30.885	-1.02493
0.143333	30.896	-1.02865
0.145000	30.908	-1.03281
0.146667	30.919	-1.03804
0.148333	30.931	-1.04215
0.150000	30.944	-1.04521
0.151667	30.954	-1.04636
0.153333	30.967	-1.05020
0.155000	30.979	-1.05142
0.156667	30.990	-1.05218
0.158333	31.003	-1.05683
0.160000	31.016	-1.06002
0.161667	31.028	-1.06297
0.163333	31.040	-1.06689
0.165000	31.052	-1.07059
0.166667	31.064	-1.07222
0.168333	31.077	-1.07358
0.170000	31.089	-1.07404
0.171667	31.101	-1.07346
0.173333	31.114	-1.07286
0.175000	31.127	-1.07162
0.176667	31.140	-1.07149
0.178333	31.153	-1.07089
0.180000	31.165	-1.06963
0.181667	31.177	-1.06870
0.183333	31.190	-1.06769
0.185000	31.202	-1.06740
0.186667	31.216	-1.06661
0.188333	31.229	-1.06623
0.190000	31.242	-1.06556
0.191667	31.255	-1.06496
0.193333	31.268	-1.05894
0.195000	31.281	-1.05761
0.196667	31.294	-1.05687
0.198333	31.307	-1.05487
0.200000	31.320	-1.05287
0.201667	31.333	-1.05128
0.203333	31.346	-1.04931
0.205000	31.360	-1.04725
0.206667	31.373	-1.04551
0.208333	31.386	-1.04398
0.210000	31.399	-1.04256
0.211667	31.413	-1.04082
0.213333	31.426	-1.03896
0.215000	31.440	-1.03657
0.216667	31.453	-1.03415
0.218333	31.466	-1.03121
0.220000	31.480	-1.02859
0.221667	31.493	-1.02645
0.223333	31.508	-1.02427
0.225000	31.521	-1.02245
0.226667	31.534	-1.02125
0.228333	31.548	-1.02046
0.230000	31.562	-1.02013
0.231667	31.576	-1.01970
0.233333	31.590	-1.01924
0.235000	31.604	-1.01834
0.236667	31.618	-1.01696
0.238333	31.632	-1.01479
0.240000	31.646	-1.01184
0.241667	31.660	-1.00805
0.243333	31.674	-1.00393
0.245000	31.688	-0.999883
0.246667	31.701	-0.996137
0.248333	31.716	-0.993077
0.250000	31.730	-0.990085
0.251667	31.744	-0.988346
0.253333	31.757	-0.986947
0.255000	31.772	-0.985399
0.256667	31.787	-0.984108
0.258333	31.801	-0.981926
0.260000	31.814	-0.978901
0.261667	31.829	-0.976314
0.263333	31.843	-0.974038
0.265000	31.857	-0.971465
0.266667	31.872	-0.969093
0.268333	31.886	-0.966558
0.270000	31.902	-0.964612
0.271667	31.916	-0.963013
0.273333	31.931	-0.961014
0.275000	31.946	-0.958728
0.276667	31.960	-0.956060
0.278333	31.975	-0.952066
0.280000	31.989	-0.948633
0.281667	32.004	-0.945736
0.283333	32.018	-0.943256
0.285000	32.033	-0.941230
0.286667	32.047	-0.939445
0.288333	32.062	-0.937747
0.290000	32.078	-0.935908
0.291667	32.093	-0.933551
0.293333	32.108	-0.931070
0.295000	32.122	-0.927726
0.296667	32.137	-0.923230
0.298333	32.152	-0.919263
0.300000	32.167	-0.916410
0.301667	32.183	-0.914642
0.303333	32.197	-0.913086
0.305000	32.212	-0.912388
0.306667	32.228	-0.911466
0.308333	32.243	-0.910671
0.310000	32.258	-0.909085
0.311667	32.274	-0.906531
0.313333	32.289	-0.902191
0.315000	32.303	-0.897505
0.316667	32.320	-0.893096
0.318333	32.334	-0.888664
0.320000	32.349	-0.883155
0.321667	32.364	-0.878251
0.323333	32.378	-0.875736
0.325000	32.394	-0.874153
0.326667	32.409	-0.873587
0.328333	32.424	-0.872979
0.330000	32.440	-0.872532
0.331667	32.454	-0.871877
0.333333	32.470	-0.871165
0.335000	32.486	-0.870737
0.336667	32.501	-0.868992
0.338333	32.516	-0.865669
0.340000	32.532	-0.861566
0.341667	32.548	-0.857291
0.343333	32.563	-0.853457
0.345000	32.577	-0.849919
0.346667	32.594	-0.846980
0.348333	32.609	-0.843634
0.350000	32.625	-0.841533
0.351667	32.639	-0.840050
0.353333	32.656	-0.838739
0.355000	32.671	-0.837086
0.356667	32.686	-0.835258
0.358333	32.701	-0.832932
0.360000	32.717	-0.831993
0.361667	32.733	-0.831695
0.363333	32.749	-0.831396
0.365000	32.764	-0.830880
0.366667	32.778	-0.829585
0.368333	32.795	-0.828011
0.370000	32.811	-0.826406
0.371667	32.826	-0.823563
0.373333	32.842	-0.818924
0.375000	32.857	-0.813031
0.376667	32.873	-0.806483
0.378333	32.889	-0.802386
0.380000	32.905	-0.800682
0.381667	32.921	-0.800346
0.383333	32.936	-0.800337
0.385000	32.951	-0.800742
0.386667	32.968	-0.801374
0.388333	32.983	-0.801916
0.390000	32.999	-0.802185
0.391667	33.014	-0.801758
0.393333	33.030	-0.800089
0.395000	33.046	-0.795780
0.396667	33.063	-0.790717
0.398333	33.078	-0.783435
0.400000	33.094	-0.777862
0.401667	33.109	-0.774646
0.403333	33.126	-0.772010
0.405000	33.140	-0.770594
0.406667	33.156	-0.768507
0.408333	33.172	-0.767213
0.410000	33.188	-0.765791
0.411667	33.203	-0.765032
0.413333	33.220	-0.763822
0.415000	33.236	-0.763065
0.416667	33.253	-0.762320
0.418333	33.268	-0.762023
0.420000	33.283	-0.761863
0.421667	33.299	-0.761427
0.423333	33.316	-0.761027
0.425000	33.332	-0.760061
0.426667	33.347	-0.758560
0.428333	33.364	-0.756705
0.430000	33.379	-0.754732
0.431667	33.394	-0.752075
0.433333	33.411	-0.750511
0.435000	33.427	-0.749819
0.436667	33.443	-0.749486
0.438333	33.459	-0.749016
0.440000	33.474	-0.748191
0.441667	33.492	-0.746929
0.443333	33.507	-0.745280
0.445000	33.523	-0.743502
0.446667	33.539	-0.741514
0.448333	33.554	-0.739308
0.450000	33.570	-0.736331
0.451667	33.586	-0.733762
0.453333	33.603	-0.730511
0.455000	33.619	-0.727305
0.456667	33.635	-0.725028
0.458333	33.650	-0.723173
0.460000	33.667	-0.721378
0.461667	33.682	-0.719278
0.463333	33.699	-0.717701
0.465000	33.714	-0.717040
0.466667	33.731	-0.716369
0.468333	33.747	-0.715660
0.470000	33.763	-0.714591
0.471667	33.780	-0.712722
0.473333	33.795	-0.710717
0.475000	33.811	-0.709094
0.476667	33.827	-0.708109
0.478333	33.843	-0.707405
0.480000	33.859	-0.706109
0.481667	33.877	-0.704328
0.483333	33.892	-0.703256
0.485000	33.908	-0.701962
0.486667	33.926	-0.699897
0.488333	33.941	-0.697000
0.490000	33.957	-0.694240
0.491667	33.973	-0.691788
0.493333	33.989	-0.689983
0.495000	34.004	-0.688789
0.496667	34.021	-0.687632
0.498333	34.038	-0.686108
0.500000	34.053	-0.684487
0.501667	34.070	-0.682451
0.503333	34.086	-0.680505
0.505000	34.102	-0.677953
0.506667	34.118	-0.675843
0.508333	34.134	-0.673791
0.510000	34.151	-0.671264
0.511667	34.167	-0.669329
0.513333	34.184	-0.667738
0.515000	34.199	-0.666108
0.516667	34.217	-0.664759
0.518333	34.232	-0.663885
0.520000	34.249	-0.663132
0.521667	34.265	-0.662459
0.523333	34.281	-0.661978
0.525000	34.297	-0.661721
0.526667	34.313	-0.661370
0.528333	34.330	-0.661137
0.530000	34.346	-0.660896
0.531667	34.362	-0.660393
0.533333	34.378	-0.659791
0.535000	34.395	-0.659421
0.536667	34.411	-0.658805
0.538333	34.427	-0.657775
0.540000	34.444	-0.655872
0.541667	34.461	-0.654130
0.543333	34.476	-0.652735
0.545000	34.493	-0.650977
0.546667	34.509	-0.649811
0.548333	34.525	-0.648755
0.550000	34.542	-0.647860
0.551667	34.558	-0.646855
0.553333	34.574	-0.645951
0.555000	34.590	-0.645209
0.556667	34.606	-0.644570
0.558333	34.624	-0.643960
0.560000	34.639	-0.643658
0.561667	34.656	-0.643559
0.563333	34.672	-0.643500
0.565000	34.688	-0.643419
0.566667	34.705	-0.643375
0.568333	34.722	-0.643264
0.570000	34.738	-0.643142
0.571667	34.754	-0.642904
0.573333	34.770	-0.642390
0.575000	34.787	-0.641280
0.576667	34.802	-0.639307
0.578333	34.818	-0.637538
0.580000	34.835	-0.635348
0.581667	34.851	-0.633346
0.583333	34.868	-0.631332
0.585000	34.883	-0.630137
0.586667	34.901	-0.629202
0.588333	34.917	-0.628782
0.590000	34.933	-0.628450
0.591667	34.950	-0.628238
0.593333	34.966	-0.628128
0.595000	34.982	-0.628050
0.596667	34.998	-0.627873
0.598333	35.015	-0.627832
0.600000	35.031	-0.627776
0.601667	35.047	-0.627714
0.603333	35.063	-0.627587
0.605000	35.080	-0.627227
0.606667	35.096	-0.626549
0.608333	35.114	-0.625499
0.610000	35.130	-0.624386
0.611667	35.146	-0.623309
0.613333	35.163	-0.622206
0.615000	35.178	-0.621292
0.616667	35.195	-0.620609
0.618333	35.212	-0.620042
0.620000	35.229	-0.619790
0.621667	35.244	-0.619587
0.623333	35.261	-0.619476
0.625000	35.277	-0.619233
0.626667	35.294	-0.618890
0.628333	35.309	-0.618669
0.630000	35.326	-0.618560
0.631667	35.343	-0.618453
0.633333	35.359	-0.618276
0.635000	35.375	-0.618109
0.636667	35.392	-0.617953
0.638333	35.408	-0.617736
0.640000	35.424	-0.617562
0.641667	35.442	-0.617354
0.643333	35.457	-0.617013
0.645000	35.475	-0.616582
0.646667	35.491	-0.616197
0.648333	35.507	-0.615930
0.650000	35.523	-0.615657
0.651667	35.540	-0.615505
0.653333	35.557	-0.615359
0.655000	35.573	-0.614909
0.656667	35.589	-0.614692
0.658333	35.606	-0.614450
0.660000	35.622	-0.614249
0.661667	35.639	-0.614171
0.663333	35.656	-0.613978
0.665000	35.672	-0.613851
0.666667	35.688	-0.613707
0.668333	35.704	-0.613570
0.670000	35.721	-0.613497
0.671667	35.738	-0.613411
0.673333	35.753	-0.613333
0.675000	35.770	-0.613237
0.676667	35.786	-0.613015
0.678333	35.803	-0.612878
0.680000	35.819	-0.612721
0.681667	35.836	-0.612551
0.683333	35.853	-0.612444
0.685000	35.870	-0.612348
0.686667	35.886	-0.612262
0.688333	35.902	-0.612174
0.690000	35.919	-0.612066
0.691667	35.936	-0.611985
0.693333	35.951	-0.611941
0.695000	35.968	-0.611884
0.696667	35.985	-0.611826
0.698333	36.001	-0.611774
0.700000	36.018	-0.611706
0.701667	36.034	-0.611654
0.703333	36.050	-0.611592
0.705000	36.068	-0.611523
0.706667	36.084	-0.611430
0.708333	36.101	-0.611318
0.710000	36.116	-0.611137
0.711667	36.134	-0.611022
0.713333	36.151	-0.610913
0.715000	36.167	-0.610797
0.716667	36.182	-0.610689
0.718333	36.200	-0.610596
0.720000	36.216	-0.610525
0.721667	36.233	-0.610455
0.723333	36.249	-0.610402
0.725000	36.265	-0.610338
0.726667	36.282	-0.610270
0.728333	36.298	-0.610191
0.730000	36.315	-0.610125
0.731667	36.331	-0.610071
0.733333	36.348	-0.610008
0.735000	36.365	-0.609945
0.736667	36.381	-0.609891
0.738333	36.399	-0.609841
0.740000	36.414	-0.609782
0.741667	36.431	-0.609742
0.743333	36.447	-0.609693
0.745000	36.463	-0.609627
0.746667	36.480	-0.609555
0.748333	36.496	-0.609494
0.750000	36.514	-0.609449
0.751667	36.529	-0.609408
0.753333	36.547	-0.609365
0.755000	36.563	-0.609338
0.756667	36.578	-0.609323
0.758333	36.595	-0.609328
0.760000	36.611	-0.609378
0.761667	36.628	-0.609424
0.763333	36.646	-0.609439
0.765000	36.662	-0.609449
0.766667	36.679	-0.609432
0.768333	36.695	-0.609417
0.770000	36.711	-0.609421
0.771667	36.728	-0.609437
0.773333	36.745	-0.609462
0.775000	36.762	-0.609491
0.776667	36.779	-0.609531
0.778333	36.795	-0.609565
0.780000	36.811	-0.609604
0.781667	36.828	-0.609687
0.783333	36.844	-0.609730
0.785000	36.861	-0.609743
0.786667	36.877	-0.609752
0.788333	36.893	-0.609750
0.790000	36.910	-0.609767
0.791667	36.926	-0.609805
0.793333	36.943	-0.609862
0.795000	36.960	-0.609929
0.796667	36.976	-0.609991
0.798333	36.993	-0.610046
0.800000	37.010	-0.610191
0.801667	37.026	-0.610246
0.803333	37.043	-0.610285
0.805000	37.059	-0.610326
0.806667	37.076	-0.610366
0.808333	37.093	-0.610431
0.810000	37.109	-0.610619
0.811667	37.126	-0.610961
0.813333	37.143	-0.611446
0.815000	37.158	-0.611993
0.816667	37.174	-0.612435
0.818333	37.191	-0.612976
0.820000	37.208	-0.613384
0.821667	37.225	-0.613649
0.823333	37.241	-0.613842
0.825000	37.258	-0.614111
0.826667	37.275	-0.614503
0.828333	37.291	-0.615238
0.830000	37.308	-0.616179
0.831667	37.325	-0.617570
0.833333	37.342	-0.618949
0.835000	37.358	-0.619639
0.836667	37.374	-0.620241
0.838333	37.391	-0.620846
0.840000	37.408	-0.621630
0.841667	37.423	-0.622546
0.843333	37.440	-0.623703
0.845000	37.456	-0.624913
0.846667	37.473	-0.626469
0.848333	37.489	-0.628315
0.850000	37.507	-0.629755
0.851667	37.522	-0.630755
0.853333	37.539	-0.631349
0.855000	37.555	-0.631812
0.856667	37.573	-0.632098
0.858333	37.588	-0.632581
0.860000	37.605	-0.633365
0.861667	37.622	-0.634996
0.863333	37.639	-0.637514
0.865000	37.655	-0.640930
0.866667	37.672	-0.645100
0.868333	37.689	-0.648917
0.870000	37.706	-0.651261
0.871667	37.722	-0.652929
0.873333	37.739	-0.654218
0.875000	37.755	-0.655071
0.876667	37.771	-0.655441
0.878333	37.788	-0.655724
0.880000	37.805	-0.656022
0.881667	37.822	-0.656404
0.883333	37.839	-0.656924
0.885000	37.854	-0.657431
0.886667	37.871	-0.658155
0.888333	37.886	-0.659006
0.890000	37.903	-0.660411
0.891667	37.921	-0.662422
0.893333	37.936	-0.665328
0.895000	37.953	-0.668417
0.896667	37.970	-0.671026
0.898333	37.987	-0.674022
0.900000	38.003	-0.677404
0.901667	38.020	-0.680272
0.903333	38.036	-0.681650
0.905000	38.052	-0.682567
0.906667	38.069	-0.683091
0.908333	38.087	-0.683723
0.910000	38.103	-0.684316
0.911667	38.120	-0.684941
0.913333	38.137	-0.685858
0.915000	38.152	-0.686748
0.916667	38.170	-0.687760
0.918333	38.186	-0.689315
0.920000	38.202	-0.691602
0.921667	38.218	-0.694033
0.923333	38.236	-0.697473
0.925000	38.252	-0.701418
0.926667	38.269	-0.704537
0.928333	38.285	-0.706289
0.930000	38.302	-0.707787
0.931667	38.319	-0.709592
0.933333	38.334	-0.710828
0.935000	38.352	-0.711854
0.936667	38.368	-0.712639
0.938333	38.384	-0.713322
0.940000	38.401	-0.714027
0.941667	38.418	-0.715240
0.943333	38.435	-0.716739
0.945000	38.451	-0.718626
0.946667	38.468	-0.720185
0.948333	38.484	-0.721261
0.950000	38.501	-0.722487
0.951667	38.518	-0.723660
0.953333	38.535	-0.724606
0.955000	38.551	-0.725317
0.956667	38.567	-0.726061
0.958333	38.584	-0.727298
0.960000	38.601	-0.728774
0.961667	38.617	-0.729957
0.963333	38.634	-0.731532
0.965000	38.650	-0.733379
0.966667	38.667	-0.735570
0.968333	38.683	-0.737308
0.970000	38.701	-0.739000
0.971667	38.716	-0.740317
0.973333	38.733	-0.741183
0.975000	38.750	-0.741658
0.976667	38.767	-0.742274
0.978333	38.784	-0.743049
0.980000	38.801	-0.744068
0.981667	38.817	-0.745595
0.983333	38.834	-0.747483
0.985000	38.849	-0.749835
0.986667	38.867	-0.752115
0.988333	38.883	-0.753805
0.990000	38.899	-0.754812
0.991667	38.917	-0.755839
0.993333	38.934	-0.756689
0.995000	38.950	-0.757319
0.996667	38.966	-0.757769
0.998333	38.984	-0.758425
1.00000	39.000	-0.759123
1.00167	39.015	-0.759633
1.00333	39.032	-0.760688
1.00500	39.049	-0.762153
1.00667	39.065	-0.763421
1.00833	39.082	-0.764194
1.01000	39.099	-0.764835
1.01167	39.116	-0.765516
1.01333	39.132	-0.766054
1.01500	39.150	-0.766728
1.01667	39.166	-0.767534
1.01833	39.182	-0.768124
1.02000	39.199	-0.768728
1.02167	39.216	-0.769687
1.02333	39.232	-0.771112
1.02500	39.249	-0.772768
1.02667	39.265	-0.774712
1.02833	39.282	-0.776653
1.03000	39.298	-0.778735
1.03167	39.314	-0.780840
1.03333	39.332	-0.783107
1.03500	39.349	-0.784796
1.03667	39.365	-0.786032
1.03833	39.382	-0.787080
1.04000	39.398	-0.788134
1.04167	39.415	-0.789290
1.04333	39.431	-0.790631
1.04500	39.449	-0.792107
1.04667	39.465	-0.793484
1.04833	39.482	-0.794557
1.05000	39.499	-0.795404
1.05167	39.514	-0.796018
1.05333	39.532	-0.796330
1.05500	39.548	-0.796420
1.05667	39.565	-0.796500
1.05833	39.580	-0.796675
1.06000	39.598	-0.797094
1.06167	39.614	-0.797991
1.06333	39.630	-0.799377
1.06500	39.648	-0.801457
1.06667	39.664	-0.804582
1.06833	39.681	-0.808387
1.07000	39.699	-0.811472
1.07167	39.714	-0.813603
1.07333	39.732	-0.814218
1.07500	39.749	-0.814370
1.07667	39.765	-0.814420
1.07833	39.781	-0.814434
1.08000	39.797	-0.814454
1.08167	39.815	-0.814293
1.08333	39.831	-0.814215
1.08500	39.847	-0.814228
1.08667	39.863	-0.814309
1.08833	39.880	-0.814576
1.09000	39.896	-0.814986
1.09167	39.913	-0.815510
1.09333	39.929	-0.815971
1.09500	39.947	-0.816658
1.09667	39.964	-0.817920
1.09833	39.980	-0.819163
1.10000	39.996	-0.820046
1.10167	40.013	-0.820730
1.10333	40.030	-0.821550
1.10500	40.047	-0.822213
1.10667	40.064	-0.822906
1.10833	40.080	-0.823561
1.11000	40.098	-0.824347
1.11167	40.114	-0.825176
1.11333	40.131	-0.826252
1.11500	40.147	-0.827924
1.11667	40.163	-0.829281
1.11833	40.179	-0.830036
1.12000	40.197	-0.830491
1.12167	40.213	-0.830945
1.12333	40.229	-0.831301
1.12500	40.245	-0.831757
1.12667	40.262	-0.832514
1.12833	40.279	-0.833937
1.13000	40.296	-0.835103
1.13167	40.313	-0.836644
1.13333	40.328	-0.837782
1.13500	40.346	-0.838619
1.13667	40.361	-0.839640
1.13833	40.378	-0.840395
1.14000	40.395	-0.841025
1.14167	40.412	-0.841394
1.14333	40.430	-0.841889
1.14500	40.445	-0.842446
1.14667	40.461	-0.843262
1.14833	40.480	-0.844130
1.15000	40.496	-0.844660
1.15167	40.512	-0.845062
1.15333	40.529	-0.845290
1.15500	40.546	-0.845512
1.15667	40.562	-0.845841
1.15833	40.578	-0.846240
1.16000	40.596	-0.846635
1.16167	40.612	-0.847128
1.16333	40.628	-0.847512
1.16500	40.645	-0.847972
1.16667	40.662	-0.848515
1.16833	40.679	-0.848887
1.17000	40.695	-0.849486
1.17167	40.712	-0.850357
1.17333	40.729	-0.851027
1.17500	40.745	-0.851778
1.17667	40.761	-0.852534
1.17833	40.778	-0.853393
1.18000	40.796	-0.854242
1.18167	40.812	-0.854870
1.18333	40.828	-0.855367
1.18500	40.846	-0.855847
1.18667	40.863	-0.856207
1.18833	40.878	-0.856945
1.19000	40.895	-0.857896
1.19167	40.912	-0.858616
1.19333	40.928	-0.859441
1.19500	40.946	-0.860226
1.19667	40.961	-0.860841
1.19833	40.978	-0.861416
1.20000	40.995	-0.861795
1.20167	41.011	-0.861979
1.20333	41.029	-0.862150
1.20500	41.046	-0.862356
1.20667	41.063	-0.862786
1.20833	41.078	-0.863126
1.21000	41.095	-0.863327
1.21167	41.112	-0.863487
1.21333	41.128	-0.863805
1.21500	41.145	-0.864114
1.21667	41.161	-0.864539
1.21833	41.178	-0.864838
1.22000	41.195	-0.865210
1.22167	41.211	-0.865567
1.22333	41.228	-0.866114
1.22500	41.245	-0.866552
1.22667	41.262	-0.866808
1.22833	41.278	-0.867048
1.23000	41.295	-0.867278
1.23167	41.311	-0.867576
1.23333	41.328	-0.867931
1.23500	41.345	-0.868379
1.23667	41.361	-0.868858
1.23833	41.377	-0.870159
1.24000	41.394	-0.871828
1.24167	41.410	-0.873922
1.24333	41.427	-0.875582
1.24500	41.445	-0.876308
1.24667	41.461	-0.876971
1.24833	41.477	-0.877833
1.25000	41.494	-0.878287
1.25167	41.510	-0.879063
1.25333	41.526	-0.879882
1.25500	41.543	-0.880955
1.25667	41.560	-0.882629
1.25833	41.577	-0.884441
1.26000	41.593	-0.885859
1.26167	41.609	-0.886995
1.26333	41.627	-0.887411
1.26500	41.643	-0.887664
1.26667	41.659	-0.887794
1.26833	41.677	-0.888179
1.27000	41.694	-0.888772
1.27167	41.710	-0.888973
1.27333	41.726	-0.889269
1.27500	41.744	-0.889766
1.27667	41.760	-0.890311
1.27833	41.777	-0.890885
1.28000	41.793	-0.891383
1.28167	41.809	-0.891773
1.28333	41.826	-0.892116
1.28500	41.842	-0.892369
1.28667	41.859	-0.892656
1.28833	41.876	-0.892899
1.29000	41.892	-0.893157
1.29167	41.909	-0.893681
1.29333	41.926	-0.894146
1.29500	41.943	-0.894791
1.29667	41.960	-0.895693
1.29833	41.976	-0.896388
1.30000	41.992	-0.897385
1.30167	42.009	-0.898333
1.30333	42.026	-0.899338
1.30500	42.042	-0.900637
1.30667	42.059	-0.901555
1.30833	42.076	-0.902024
1.31000	42.092	-0.902443
1.31167	42.109	-0.903054
1.31333	42.125	-0.903405
1.31500	42.142	-0.903634
1.31667	42.158	-0.903859
1.31833	42.176	-0.904127
1.32000	42.192	-0.904379
1.32167	42.209	-0.904976
1.32333	42.226	-0.905769
1.32500	42.242	-0.907071
1.32667	42.259	-0.908308
1.32833	42.276	-0.909202
1.33000	42.292	-0.910557
1.33167	42.308	-0.911695
1.33333	42.325	-0.912623
1.33500	42.342	-0.913185
1.33667	42.358	-0.913539
1.33833	42.375	-0.913735
1.34000	42.392	-0.914409
1.34167	42.409	-0.914584
1.34333	42.425	-0.914908
1.34500	42.442	-0.915197
1.34667	42.459	-0.915404
1.34833	42.475	-0.915849
1.35000	42.491	-0.916468
1.35167	42.508	-0.916929
1.35333	42.524	-0.917274
1.35500	42.541	-0.917678
1.35667	42.559	-0.918222
1.35833	42.575	-0.918787
1.36000	42.591	-0.919322
1.36167	42.608	-0.919816
1.36333	42.625	-0.920120
1.36500	42.641	-0.920314
1.36667	42.659	-0.920510
1.36833	42.675	-0.920667
1.37000	42.691	-0.920826
1.37167	42.708	-0.920978
1.37333	42.724	-0.921130
1.37500	42.741	-0.921283
1.37667	42.758	-0.921438
1.37833	42.775	-0.921601
1.38000	42.793	-0.921761
1.38167	42.808	-0.921922
1.38333	42.824	-0.922078
1.38500	42.841	-0.922223
1.38667	42.858	-0.922368
1.38833	42.874	-0.922519
1.39000	42.891	-0.922679
1.39167	42.908	-0.922840
1.39333	42.925	-0.923004
1.39500	42.941	-0.923169
1.39667	42.957	-0.923389
1.39833	42.975	-0.923763
1.40000	42.992	-0.924202
1.40167	43.007	-0.924504
1.40333	43.024	-0.924974
1.40500	43.040	-0.925929
1.40667	43.057	-0.927067
1.40833	43.075	-0.928016
1.41000	43.091	-0.928651
1.41167	43.107	-0.929261
1.41333	43.125	-0.929528
1.41500	43.141	-0.929833
1.41667	43.157	-0.930005
1.41833	43.174	-0.930408
1.42000	43.190	-0.930535
1.42167	43.207	-0.930657
1.42333	43.223	-0.930833
1.42500	43.240	-0.930995
1.42667	43.257	-0.931131
1.42833	43.274	-0.931262
1.43000	43.291	-0.931396
1.43167	43.307	-0.931513
1.43333	43.324	-0.931660
1.43500	43.341	-0.931808
1.43667	43.358	-0.931966
1.43833	43.375	-0.932114
1.44000	43.391	-0.932256
1.44167	43.408	-0.932415
1.44333	43.424	-0.932578
1.44500	43.441	-0.932728
1.44667	43.457	-0.932888
1.44833	43.474	-0.933067
1.45000	43.489	-0.933244
1.45167	43.506	-0.933422
1.45333	43.524	-0.933599
1.45500	43.540	-0.933776
1.45667	43.556	-0.933936
1.45833	43.574	-0.934083
1.46000	43.591	-0.934256
1.46167	43.607	-0.934417
1.46333	43.625	-0.934591
1.46500	43.641	-0.934773
1.46667	43.657	-0.935225
1.46833	43.674	-0.935722
1.47000	43.690	-0.935915
1.47167	43.706	-0.936098
1.47333	43.723	-0.936275
1.47500	43.740	-0.936448
1.47667	43.757	-0.936595
1.47833	43.774	-0.936732
1.48000	43.791	-0.936873
1.48167	43.808	-0.937017
1.48333	43.823	-0.937164
1.48500	43.841	-0.937313
1.48667	43.857	-0.937464
1.48833	43.874	-0.937612
1.49000	43.890	-0.937750
1.49167	43.907	-0.937896
1.49333	43.924	-0.938031
1.49500	43.940	-0.938159
1.49667	43.956	-0.938278
1.49833	43.972	-0.938423
1.50000	43.990	-0.938570
1.50167	44.007	-0.938724
1.50333	44.024	-0.938873
1.50500	44.040	-0.939031
1.50667	44.057	-0.939195
1.50833	44.074	-0.939363
1.51000	44.090	-0.939528
1.51167	44.107	-0.939701
1.51333	44.125	-0.939879
1.51500	44.142	-0.940067
1.51667	44.157	-0.940306
1.51833	44.175	-0.940548
1.52000	44.191	-0.940800
1.52167	44.208	-0.940970
1.52333	44.224	-0.941129
1.52500	44.241	-0.941270
1.52667	44.257	-0.941394
1.52833	44.274	-0.941497
1.53000	44.291	-0.941600
1.53167	44.307	-0.941703
1.53333	44.324	-0.941826
1.53500	44.340	-0.941959
1.53667	44.357	-0.942083
1.53833	44.374	-0.942208
1.54000	44.390	-0.942341
1.54167	44.408	-0.942500
1.54333	44.425	-0.942668
1.54500	44.440	-0.942829
1.54667	44.457	-0.943034
1.54833	44.474	-0.943217
1.55000	44.491	-0.943371
1.55167	44.508	-0.943520
1.55333	44.524	-0.943661
1.55500	44.541	-0.943807
1.55667	44.557	-0.943947
1.55833	44.574	-0.944086
1.56000	44.590	-0.944228
1.56167	44.607	-0.944387
1.56333	44.624	-0.944531
1.56500	44.641	-0.944684
1.56667	44.657	-0.944833
1.56833	44.674	-0.944947
1.57000	44.691	-0.945037
1.57167	44.708	-0.945125
1.57333	44.724	-0.945248
1.57500	44.741	-0.945389
1.57667	44.758	-0.945525
1.57833	44.774	-0.945661
1.58000	44.790	-0.945792
1.58167	44.808	-0.945933
1.58333	44.824	-0.946079
1.58500	44.841	-0.946228
1.58667	44.858	-0.946387
1.58833	44.874	-0.946547
1.59000	44.891	-0.946706
1.59167	44.907	-0.946862
1.59333	44.923	-0.947022
1.59500	44.940	-0.947162
1.59667	44.958	-0.947294
1.59833	44.974	-0.947390
1.60000	44.991	-0.947455
1.60167	45.008	-0.947518
1.60333	45.025	-0.947582
1.60500	45.041	-0.947677
1.60667	45.057	-0.947810
1.60833	45.074	-0.947948
1.61000	45.090	-0.948081
1.61167	45.107	-0.948207
1.61333	45.124	-0.948342
1.61500	45.140	-0.948487
1.61667	45.158	-0.948624
1.61833	45.174	-0.948750
1.62000	45.190	-0.948847
1.62167	45.208	-0.948924
1.62333	45.224	-0.948995
1.62500	45.241	-0.949067
1.62667	45.258	-0.949162
1.62833	45.273	-0.949256
1.63000	45.290	-0.949373
1.63167	45.307	-0.949496
1.63333	45.324	-0.949626
1.63500	45.341	-0.949749
1.63667	45.357	-0.949869
1.63833	45.373	-0.949979
1.64000	45.391	-0.950081
1.64167	45.407	-0.950172
1.64333	45.424	-0.950260
1.64500	45.440	-0.950346
1.64667	45.457	-0.950423
1.64833	45.473	-0.950521
1.65000	45.490	-0.950659
1.65167	45.507	-0.950801
1.65333	45.524	-0.950911
1.65500	45.540	-0.951015
1.65667	45.556	-0.951113
1.65833	45.573	-0.951190
1.66000	45.590	-0.951249
1.66167	45.608	-0.951282
1.66333	45.623	-0.951312
1.66500	45.640	-0.951333
1.66667	45.657	-0.951366
1.66833	45.673	-0.951441
1.67000	45.690	-0.951524
1.67167	45.706	-0.951624
1.67333	45.724	-0.951758
1.67500	45.741	-0.952123
1.67667	45.757	-0.952691
1.67833	45.773	-0.953239
1.68000	45.790	-0.953583
1.68167	45.807	-0.953977
1.68333	45.824	-0.954189
1.68500	45.841	-0.954328
1.68667	45.857	-0.954454
1.68833	45.874	-0.954557
1.69000	45.890	-0.954643
1.69167	45.907	-0.954696
1.69333	45.925	-0.954745
1.69500	45.941	-0.954772
1.69667	45.958	-0.954781
1.69833	45.974	-0.954761
1.70000	45.990	-0.954732
1.70167	46.007	-0.954737
1.70333	46.024	-0.954755
1.70500	46.040	-0.954809
1.70667	46.057	-0.954877
1.70833	46.074	-0.954973
1.71000	46.091	-0.955089
1.71167	46.107	-0.955332
1.71333	46.124	-0.955555
1.71500	46.142	-0.955674
1.71667	46.158	-0.955769
1.71833	46.174	-0.955829
1.72000	46.192	-0.955875
1.72167	46.209	-0.955905
1.72333	46.225	-0.955940
1.72500	46.242	-0.955984
1.72667	46.259	-0.956029
1.72833	46.276	-0.956084
1.73000	46.291	-0.956149
1.73167	46.309	-0.956216
1.73333	46.325	-0.956281
1.73500	46.342	-0.956322
1.73667	46.359	-0.956361
1.73833	46.376	-0.956407
1.74000	46.391	-0.956481
1.74167	46.409	-0.956572
1.74333	46.425	-0.956686
1.74500	46.441	-0.956877
1.74667	46.458	-0.956996
1.74833	46.476	-0.957070
1.75000	46.492	-0.957118
1.75167	46.508	-0.957129
1.75333	46.524	-0.957073
1.75500	46.541	-0.956984
1.75667	46.557	-0.956936
1.75833	46.574	-0.956915
1.76000	46.591	-0.956920
1.76167	46.606	-0.956921
1.76333	46.624	-0.956946
1.76500	46.640	-0.956994
1.76667	46.657	-0.957043
1.76833	46.673	-0.957090
1.77000	46.690	-0.957123
1.77167	46.707	-0.957149
1.77333	46.724	-0.957176
1.77500	46.741	-0.957203
1.77667	46.758	-0.957228
1.77833	46.774	-0.957243
1.78000	46.791	-0.957268
1.78167	46.807	-0.957297
1.78333	46.824	-0.957334
1.78500	46.840	-0.957369
1.78667	46.856	-0.957410
1.78833	46.873	-0.957461
1.79000	46.889	-0.957518
1.79167	46.906	-0.957585
1.79333	46.922	-0.957661
1.79500	46.939	-0.957739
1.79667	46.956	-0.957801
1.79833	46.973	-0.957844
1.80000	46.989	-0.957868
1.80167	47.006	-0.957874
1.80333	47.023	-0.957883
1.80500	47.040	-0.957898
1.80667	47.056	-0.957895
1.80833	47.073	-0.957887
1.81000	47.091	-0.957913
1.81167	47.107	-0.957952
1.81333	47.124	-0.957993
1.81500	47.141	-0.958023
1.81667	47.158	-0.958035
1.81833	47.174	-0.958044
1.82000	47.191	-0.958039
1.82167	47.207	-0.958042
1.82333	47.224	-0.958050
1.82500	47.240	-0.958078
1.82667	47.257	-0.958108
1.82833	47.274	-0.958170
1.83000	47.291	-0.958260
1.83167	47.308	-0.958424
1.83333	47.324	-0.958633
1.83500	47.340	-0.958877
1.83667	47.358	-0.959024
1.83833	47.375	-0.959104
1.84000	47.391	-0.959183
1.84167	47.408	-0.959249
1.84333	47.424	-0.959290
1.84500	47.440	-0.959325
1.84667	47.458	-0.959348
1.84833	47.474	-0.959360
1.85000	47.491	-0.959364
1.85167	47.508	-0.959392
1.85333	47.525	-0.959418
1.85500	47.541	-0.959458
1.85667	47.558	-0.959491
1.85833	47.574	-0.959532
1.86000	47.591	-0.959575
1.86167	47.608	-0.959620
1.86333	47.625	-0.959687
1.86500	47.642	-0.959740
1.86667	47.659	-0.959809
1.86833	47.675	-0.959844
1.87000	47.691	-0.959879
1.87167	47.708	-0.959893
1.87333	47.725	-0.959907
1.87500	47.741	-0.959919
1.87667	47.758	-0.959915
1.87833	47.774	-0.959906
1.88000	47.790	-0.959892
1.88167	47.807	-0.959885
1.88333	47.824	-0.959890
1.88500	47.841	-0.959920
1.88667	47.856	-0.959952
1.88833	47.875	-0.959976
1.89000	47.891	-0.960009
1.89167	47.908	-0.960039
1.89333	47.924	-0.960066
1.89500	47.941	-0.960091
1.89667	47.957	-0.960134
1.89833	47.975	-0.960152
1.90000	47.990	-0.960160
1.90167	48.007	-0.960147
1.90333	48.024	-0.960129
1.90500	48.040	-0.960092
1.90667	48.057	-0.959997
1.90833	48.074	-0.959927
1.91000	48.091	-0.959889
1.91167	48.106	-0.959864
1.91333	48.122	-0.959849
1.91500	48.140	-0.959863
1.91667	48.157	-0.959880
1.91833	48.174	-0.959890
1.92000	48.189	-0.959902
1.92167	48.206	-0.959903
1.92333	48.223	-0.959886
1.92500	48.239	-0.959874
1.92667	48.257	-0.959860
1.92833	48.274	-0.959864
1.93000	48.290	-0.959865
1.93167	48.307	-0.959877
1.93333	48.323	-0.959897
1.93500	48.340	-0.959928
1.93667	48.357	-0.959938
1.93833	48.374	-0.959939
1.94000	48.390	-0.959924
1.94167	48.406	-0.959897
1.94333	48.422	-0.959868
1.94500	48.440	-0.959832
1.94667	48.456	-0.959814
1.94833	48.473	-0.959792
1.95000	48.489	-0.959774
1.95167	48.506	-0.959769
1.95333	48.523	-0.959782
1.95500	48.540	-0.959781
1.95667	48.557	-0.959768
1.95833	48.574	-0.959763
1.96000	48.590	-0.959763
1.96167	48.607	-0.959776
1.96333	48.623	-0.959784
1.96500	48.640	-0.959785
1.96667	48.657	-0.959792
1.96833	48.674	-0.959816
1.97000	48.690	-0.959862
1.97167	48.707	-0.959902
1.97333	48.723	-0.959933
1.97500	48.740	-0.959949
1.97667	48.757	-0.959938
1.97833	48.773	-0.959929
1.98000	48.790	-0.959938
1.98167	48.807	-0.959936
1.98333	48.823	-0.959870
1.98500	48.840	-0.959788
1.98667	48.856	-0.959734
1.98833	48.873	-0.959718
1.99000	48.891	-0.959702
1.99167	48.907	-0.959697
1.99333	48.924	-0.959690
1.99500	48.941	-0.959677
1.99667	48.956	-0.959663
1.99833	48.975	-0.959664
2.00000	48.992	-0.959676
2.00167	49.008	-0.959687
2.00333	49.024	-0.959682
2.00500	49.040	-0.959684
2.00667	49.058	-0.959718
2.00833	49.074	-0.959772
2.01000	49.091	-0.959814
2.01167	49.108	-0.959831
2.01333	49.124	-0.959844
2.01500	49.140	-0.959836
2.01667	49.158	-0.959801
2.01833	49.174	-0.959734
2.02000	49.191	-0.959653
2.02167	49.208	-0.959511
2.02333	49.225	-0.959395
2.02500	49.240	-0.959339
2.02667	49.257	-0.959286
2.02833	49.275	-0.959235
2.03000	49.290	-0.959183
2.03167	49.308	-0.959143
2.03333	49.324	-0.959122
2.03500	49.342	-0.959100
2.03667	49.357	-0.959078
2.03833	49.374	-0.959049
2.04000	49.392	-0.958996
2.04167	49.407	-0.958944
2.04333	49.425	-0.958912
2.04500	49.441	-0.958866
2.04667	49.457	-0.958819
2.04833	49.473	-0.958743
2.05000	49.491	-0.958677
2.05167	49.507	-0.958623
2.05333	49.524	-0.958565
2.05500	49.540	-0.958492
2.05667	49.558	-0.958421
2.05833	49.574	-0.958344
2.06000	49.591	-0.958265
2.06167	49.607	-0.958186
2.06333	49.624	-0.958107
2.06500	49.641	-0.958060
2.06667	49.657	-0.958036
2.06833	49.674	-0.958012
2.07000	49.691	-0.957989
2.07167	49.707	-0.957960
2.07333	49.724	-0.957925
2.07500	49.742	-0.957906
2.07667	49.758	-0.957882
2.07833	49.775	-0.957849
2.08000	49.791	-0.957810
2.08167	49.808	-0.957767
2.08333	49.825	-0.957720
2.08500	49.841	-0.957687
2.08667	49.858	-0.957637
2.08833	49.875	-0.957571
2.09000	49.892	-0.957465
2.09167	49.909	-0.957346
2.09333	49.925	-0.957160
2.09500	49.941	-0.956981
2.09667	49.958	-0.956857
2.09833	49.974	-0.956727
2.10000	49.992	-0.956661
2.10167	50.009	-0.956615
2.10333	50.024	-0.956575
2.10500	50.043	-0.956527
2.10667	50.059	-0.956473
2.10833	50.077	-0.956411
2.11000	50.093	-0.956368
2.11167	50.108	-0.956311
2.11333	50.125	-0.956227
2.11500	50.141	-0.956130
2.11667	50.158	-0.956023
2.11833	50.176	-0.955935
2.12000	50.192	-0.955842
2.12167	50.208	-0.955742
2.12333	50.225	-0.955651
2.12500	50.242	-0.955572
2.12667	50.259	-0.955509
2.12833	50.275	-0.955456
2.13000	50.292	-0.955421
2.13167	50.309	-0.955364
2.13333	50.325	-0.955282
2.13500	50.342	-0.955175
2.13667	50.359	-0.954975
2.13833	50.375	-0.954138
2.14000	50.392	-0.953134
2.14167	50.409	-0.952587
2.14333	50.425	-0.952143
2.14500	50.442	-0.951926
2.14667	50.459	-0.951807
2.14833	50.475	-0.951729
2.15000	50.492	-0.951665
2.15167	50.509	-0.951619
2.15333	50.526	-0.951572
2.15500	50.543	-0.951501
2.15667	50.559	-0.951393
2.15833	50.576	-0.951271
2.16000	50.593	-0.951150
2.16167	50.608	-0.950888
2.16333	50.626	-0.950686
2.16500	50.642	-0.950510
2.16667	50.659	-0.950381
2.16833	50.677	-0.950210
2.17000	50.693	-0.950052
2.17167	50.710	-0.949794
2.17333	50.727	-0.949449
2.17500	50.743	-0.949156
2.17667	50.760	-0.948861
2.17833	50.777	-0.948603
2.18000	50.793	-0.948292
2.18167	50.809	-0.948086
2.18333	50.826	-0.947956
2.18500	50.843	-0.947841
2.18667	50.861	-0.947741
2.18833	50.877	-0.947655
2.19000	50.892	-0.947559
2.19167	50.910	-0.947437
2.19333	50.927	-0.947311
2.19500	50.943	-0.947173
2.19667	50.960	-0.947053
2.19833	50.978	-0.946932
2.20000	50.994	-0.946792
2.20167	51.010	-0.946614
2.20333	51.027	-0.946470
2.20500	51.043	-0.946307
2.20667	51.061	-0.946149
2.20833	51.077	-0.946005
2.21000	51.093	-0.945850
2.21167	51.111	-0.945721
2.21333	51.127	-0.945576
2.21500	51.145	-0.945449
2.21667	51.162	-0.945329
2.21833	51.178	-0.945229
2.22000	51.194	-0.945100
2.22167	51.211	-0.944969
2.22333	51.226	-0.944815
2.22500	51.243	-0.944404
2.22667	51.261	-0.943902
2.22833	51.278	-0.943166
2.23000	51.294	-0.942444
2.23167	51.310	-0.941715
2.23333	51.327	-0.940955
2.23500	51.344	-0.940254
2.23667	51.360	-0.939988
2.23833	51.378	-0.939828
2.24000	51.394	-0.939694
2.24167	51.412	-0.939576
2.24333	51.428	-0.939450
2.24500	51.444	-0.939337
2.24667	51.461	-0.939230
2.24833	51.479	-0.939132
2.25000	51.495	-0.939031
2.25167	51.511	-0.938896
2.25333	51.528	-0.938654
2.25500	51.545	-0.938267
2.25667	51.561	-0.938014
2.25833	51.578	-0.937692
2.26000	51.595	-0.937465
2.26167	51.611	-0.937208
2.26333	51.628	-0.936812
2.26500	51.644	-0.936524
2.26667	51.662	-0.936344
2.26833	51.678	-0.936183
2.27000	51.695	-0.936013
2.27167	51.711	-0.935834
2.27333	51.728	-0.935660
2.27500	51.745	-0.935477
2.27667	51.762	-0.935299
2.27833	51.778	-0.935113
2.28000	51.795	-0.934929
2.28167	51.811	-0.934689
2.28333	51.828	-0.934503
2.28500	51.845	-0.934220
2.28667	51.861	-0.933970
2.28833	51.878	-0.933791
2.29000	51.895	-0.933608
2.29167	51.912	-0.933429
2.29333	51.929	-0.933244
2.29500	51.945	-0.933064
2.29667	51.962	-0.932867
2.29833	51.979	-0.932670
2.30000	51.995	-0.932473
2.30167	52.012	-0.932301
2.30333	52.029	-0.932132
2.30500	52.045	-0.931968
2.30667	52.063	-0.931814
2.30833	52.079	-0.931666
2.31000	52.096	-0.931533
2.31167	52.112	-0.931396
2.31333	52.128	-0.931249
2.31500	52.145	-0.931077
2.31667	52.162	-0.930858
2.31833	52.178	-0.930597
2.32000	52.195	-0.930172
2.32167	52.211	-0.929860
2.32333	52.229	-0.929429
2.32500	52.246	-0.929072
2.32667	52.263	-0.928846
2.32833	52.279	-0.928619
2.33000	52.296	-0.928427
2.33167	52.312	-0.928234
2.33333	52.329	-0.928070
2.33500	52.346	-0.927902
2.33667	52.362	-0.927728
2.33833	52.379	-0.927529
2.34000	52.395	-0.927278
2.34167	52.412	-0.926911
2.34333	52.429	-0.926586
2.34500	52.445	-0.926372
2.34667	52.462	-0.926162
2.34833	52.479	-0.925769
2.35000	52.497	-0.925293
2.35167	52.513	-0.924906
2.35333	52.530	-0.924601
2.35500	52.546	-0.924391
2.35667	52.563	-0.924184
2.35833	52.579	-0.923964
2.36000	52.597	-0.923623
2.36167	52.613	-0.923359
2.36333	52.630	-0.923089
2.36500	52.647	-0.922868
2.36667	52.663	-0.922646
2.36833	52.680	-0.922384
2.37000	52.696	-0.921923
2.37167	52.712	-0.921382
2.37333	52.729	-0.920911
2.37500	52.745	-0.920683
2.37667	52.762	-0.920453
2.37833	52.778	-0.920010
2.38000	52.796	-0.919608
2.38167	52.812	-0.919259
2.38333	52.830	-0.919030
2.38500	52.847	-0.918808
2.38667	52.863	-0.918596
2.38833	52.880	-0.918378
2.39000	52.897	-0.918157
2.39167	52.913	-0.917848
2.39333	52.930	-0.917557
2.39500	52.947	-0.917324
2.39667	52.963	-0.916891
2.39833	52.980	-0.916501
2.40000	52.997	-0.916004
2.40167	53.013	-0.915615
2.40333	53.031	-0.915383
2.40500	53.047	-0.915159
2.40667	53.063	-0.914930
2.40833	53.080	-0.914686
2.41000	53.097	-0.914381
2.41167	53.114	-0.914029
2.41333	53.130	-0.913474
2.41500	53.147	-0.912814
2.41667	53.164	-0.912261
2.41833	53.181	-0.911698
2.42000	53.196	-0.910943
2.42167	53.214	-0.910499
2.42333	53.230	-0.910259
2.42500	53.248	-0.910031
2.42667	53.264	-0.909798
2.42833	53.281	-0.909573
2.43000	53.298	-0.909225
2.43167	53.315	-0.908985
2.43333	53.331	-0.908668
2.43500	53.348	-0.908432
2.43667	53.366	-0.908191
2.43833	53.381	-0.907581
2.44000	53.398	-0.906431
2.44167	53.414	-0.905534
2.44333	53.431	-0.904961
2.44500	53.448	-0.904718
2.44667	53.465	-0.904478
2.44833	53.480	-0.904154
2.45000	53.498	-0.903491
2.45167	53.515	-0.902262
2.45333	53.530	-0.901223
2.45500	53.548	-0.900472
2.45667	53.565	-0.899537
2.45833	53.581	-0.898205
2.46000	53.597	-0.897207
2.46167	53.615	-0.896625
2.46333	53.631	-0.896175
2.46500	53.648	-0.895947
2.46667	53.665	-0.895536
2.46833	53.681	-0.895321
2.47000	53.697	-0.895089
2.47167	53.715	-0.894659
2.47333	53.732	-0.894448
2.47500	53.748	-0.894238
2.47667	53.764	-0.894020
2.47833	53.781	-0.893794
2.48000	53.798	-0.893520
2.48167	53.814	-0.893170
2.48333	53.831	-0.892783
2.48500	53.848	-0.891960
2.48667	53.865	-0.891108
2.48833	53.882	-0.890133
2.49000	53.898	-0.889555
2.49167	53.915	-0.888888
2.49333	53.932	-0.887980
2.49500	53.949	-0.887432
2.49667	53.965	-0.886829
2.49833	53.981	-0.886288
2.50000	53.997	-0.885794
2.50167	54.014	-0.884996
2.50333	54.031	-0.884038
2.50500	54.049	-0.883009
2.50667	54.065	-0.882125
2.50833	54.082	-0.881160
2.51000	54.098	-0.880037
2.51167	54.115	-0.878394
2.51333	54.132	-0.876432
2.51500	54.148	-0.874531
2.51667	54.165	-0.872645
2.51833	54.181	-0.871259
2.52000	54.198	-0.869719
2.52167	54.215	-0.868364
2.52333	54.231	-0.867434
2.52500	54.248	-0.866772
2.52667	54.265	-0.866376
2.52833	54.281	-0.866192
2.53000	54.298	-0.865638
2.53167	54.315	-0.865455
2.53333	54.331	-0.865234
2.53500	54.349	-0.865041
2.53667	54.365	-0.864805
2.53833	54.382	-0.864619
2.54000	54.399	-0.864342
2.54167	54.415	-0.864003
2.54333	54.433	-0.863556
2.54500	54.449	-0.863156
2.54667	54.466	-0.862938
2.54833	54.482	-0.862503
2.55000	54.499	-0.862313
2.55167	54.516	-0.861930
2.55333	54.532	-0.861381
2.55500	54.549	-0.860702
2.55667	54.566	-0.860072
2.55833	54.582	-0.859385
2.56000	54.600	-0.858426
2.56167	54.616	-0.857391
2.56333	54.633	-0.856075
2.56500	54.650	-0.855281
2.56667	54.666	-0.854518
2.56833	54.683	-0.853394
2.57000	54.699	-0.852174
2.57167	54.717	-0.851297
2.57333	54.732	-0.850561
2.57500	54.750	-0.850141
2.57667	54.766	-0.849793
2.57833	54.784	-0.849467
2.58000	54.800	-0.849077
2.58167	54.816	-0.848539
2.58333	54.834	-0.848179
2.58500	54.849	-0.847445
2.58667	54.867	-0.846384
2.58833	54.882	-0.844981
2.59000	54.900	-0.843602
2.59167	54.916	-0.842161
2.59333	54.933	-0.841256
2.59500	54.949	-0.840352
2.59667	54.966	-0.839226
2.59833	54.982	-0.837704
2.60000	54.999	-0.836217
2.60167	55.016	-0.834628
2.60333	55.033	-0.832896
2.60500	55.050	-0.831610
2.60667	55.067	-0.831024
2.60833	55.083	-0.830431
2.61000	55.100	-0.829622
2.61167	55.116	-0.828954
2.61333	55.134	-0.828017
2.61500	55.151	-0.827007
2.61667	55.167	-0.825864
2.61833	55.184	-0.824926
2.62000	55.200	-0.823883
2.62167	55.217	-0.822514
2.62333	55.233	-0.821415
2.62500	55.250	-0.820900
2.62667	55.266	-0.820660
2.62833	55.283	-0.820444
2.63000	55.300	-0.820264
2.63167	55.317	-0.819933
2.63333	55.334	-0.819701
2.63500	55.350	-0.819477
2.63667	55.366	-0.819210
2.63833	55.384	-0.818768
2.64000	55.400	-0.817945
2.64167	55.416	-0.816846
2.64333	55.434	-0.815277
2.64500	55.451	-0.813623
2.64667	55.466	-0.812158
2.64833	55.484	-0.810664
2.65000	55.500	-0.808864
2.65167	55.518	-0.807854
2.65333	55.534	-0.807305
2.65500	55.551	-0.807075
2.65667	55.567	-0.806859
2.65833	55.583	-0.806658
2.66000	55.600	-0.806381
2.66167	55.617	-0.806040
2.66333	55.633	-0.805545
2.66500	55.650	-0.804947
2.66667	55.668	-0.804088
2.66833	55.683	-0.802857
2.67000	55.700	-0.801542
2.67167	55.717	-0.799899
2.67333	55.734	-0.798595
2.67500	55.752	-0.797363
2.67667	55.768	-0.796251
2.67833	55.785	-0.795349
2.68000	55.801	-0.794231
2.68167	55.817	-0.792885
2.68333	55.834	-0.791765
2.68500	55.850	-0.790770
2.68667	55.867	-0.789875
2.68833	55.884	-0.789160
2.69000	55.900	-0.788099
2.69167	55.919	-0.786834
2.69333	55.934	-0.785330
2.69500	55.951	-0.783972
2.69667	55.968	-0.783242
2.69833	55.984	-0.782658
2.70000	56.000	-0.781858
2.70167	56.017	-0.781176
2.70333	56.034	-0.780815
2.70500	56.051	-0.780581
2.70667	56.067	-0.780393
2.70833	56.084	-0.779878
2.71000	56.101	-0.779292
2.71167	56.118	-0.778613
2.71333	56.134	-0.777713
2.71500	56.150	-0.776706
2.71667	56.166	-0.774961
2.71833	56.184	-0.772389
2.72000	56.200	-0.770184
2.72167	56.217	-0.768267
2.72333	56.234	-0.767358
2.72500	56.250	-0.766811
2.72667	56.267	-0.766384
2.72833	56.284	-0.765973
2.73000	56.301	-0.765651
2.73167	56.318	-0.765490
2.73333	56.335	-0.765293
2.73500	56.352	-0.764859
2.73667	56.369	-0.764256
2.73833	56.385	-0.763324
2.74000	56.400	-0.761878
2.74167	56.418	-0.759895
2.74333	56.435	-0.758064
2.74500	56.451	-0.756880
2.74667	56.467	-0.755852
2.74833	56.484	-0.754526
2.75000	56.501	-0.753773
2.75167	56.517	-0.753273
2.75333	56.534	-0.752836
2.75500	56.552	-0.752596
2.75667	56.568	-0.752397
2.75833	56.585	-0.752123
2.76000	56.602	-0.751641
2.76167	56.618	-0.750962
2.76333	56.634	-0.749928
2.76500	56.651	-0.748522
2.76667	56.668	-0.746564
2.76833	56.685	-0.745261
2.77000	56.700	-0.744075
2.77167	56.718	-0.743298
2.77333	56.735	-0.742990
2.77500	56.751	-0.742821
2.77667	56.769	-0.742645
2.77833	56.785	-0.742452
2.78000	56.802	-0.742302
2.78167	56.819	-0.741997
2.78333	56.835	-0.741150
2.78500	56.851	-0.739144
2.78667	56.868	-0.737310
2.78833	56.885	-0.735527
2.79000	56.901	-0.734065
2.79167	56.918	-0.732982
2.79333	56.935	-0.731931
2.79500	56.951	-0.731326
2.79667	56.969	-0.730959
2.79833	56.985	-0.730819
2.80000	57.001	-0.730609
2.80167	57.017	-0.730441
2.80333	57.035	-0.730096
2.80500	57.051	-0.729691
2.80667	57.069	-0.729224
2.80833	57.085	-0.728822
2.81000	57.101	-0.727991
2.81167	57.118	-0.727091
2.81333	57.135	-0.726497
2.81500	57.151	-0.726015
2.81667	57.169	-0.725471
2.81833	57.184	-0.724563
2.82000	57.201	-0.723762
2.82167	57.218	-0.723119
2.82333	57.235	-0.722368
2.82500	57.252	-0.721838
2.82667	57.269	-0.721501
2.82833	57.285	-0.721016
2.83000	57.301	-0.720617
2.83167	57.317	-0.720284
2.83333	57.335	-0.719882
2.83500	57.351	-0.719349
2.83667	57.367	-0.718045
2.83833	57.384	-0.716344
2.84000	57.401	-0.714904
2.84167	57.417	-0.713630
2.84333	57.434	-0.712632
2.84500	57.451	-0.711954
2.84667	57.468	-0.711512
2.84833	57.485	-0.711297
2.85000	57.501	-0.711132
2.85167	57.518	-0.710916
2.85333	57.535	-0.710702
2.85500	57.552	-0.710076
2.85667	57.568	-0.709164
2.85833	57.585	-0.707966
2.86000	57.601	-0.706689
2.86167	57.618	-0.705790
2.86333	57.634	-0.704707
2.86500	57.651	-0.704044
2.86667	57.667	-0.703291
2.86833	57.684	-0.702689
2.87000	57.702	-0.702236
2.87167	57.718	-0.701856
2.87333	57.736	-0.701215
2.87500	57.752	-0.700799
2.87667	57.768	-0.700311
2.87833	57.784	-0.699774
2.88000	57.801	-0.699258
2.88167	57.818	-0.698437
2.88333	57.834	-0.697721
2.88500	57.852	-0.696899
2.88667	57.869	-0.696313
2.88833	57.885	-0.696026
2.89000	57.902	-0.695862
2.89167	57.919	-0.695681
2.89333	57.935	-0.695553
2.89500	57.952	-0.695351
2.89667	57.969	-0.695140
2.89833	57.985	-0.694918
2.90000	58.002	-0.694290
2.90167	58.018	-0.693083
2.90333	58.035	-0.691676
2.90500	58.051	-0.690471
2.90667	58.068	-0.689804
2.90833	58.084	-0.689294
2.91000	58.102	-0.688898
2.91167	58.118	-0.688761
2.91333	58.135	-0.688518
2.91500	58.151	-0.688212
2.91667	58.169	-0.687965
2.91833	58.185	-0.687625
2.92000	58.201	-0.686965
2.92167	58.219	-0.686148
2.92333	58.234	-0.685501
2.92500	58.251	-0.685111
2.92667	58.268	-0.684927
2.92833	58.285	-0.684784
2.93000	58.302	-0.684244
2.93167	58.318	-0.684100
2.93333	58.335	-0.683962
2.93500	58.352	-0.683702
2.93667	58.369	-0.683274
2.93833	58.385	-0.682660
2.94000	58.401	-0.681889
2.94167	58.418	-0.680620
2.94333	58.435	-0.679291
2.94500	58.452	-0.678593
2.94667	58.469	-0.678189
2.94833	58.485	-0.678011
2.95000	58.501	-0.677511
2.95167	58.518	-0.677414
2.95333	58.535	-0.677332
2.95500	58.551	-0.677252
2.95667	58.568	-0.677120
2.95833	58.585	-0.676992
2.96000	58.603	-0.676842
2.96167	58.619	-0.676618
2.96333	58.634	-0.676382
2.96500	58.651	-0.675932
2.96667	58.668	-0.675305
2.96833	58.684	-0.674713
2.97000	58.702	-0.674559
2.97167	58.718	-0.674387
2.97333	58.735	-0.674249
2.97500	58.751	-0.674065
2.97667	58.768	-0.673933
2.97833	58.785	-0.673800
2.98000	58.802	-0.673661
2.98167	58.819	-0.673462
2.98333	58.835	-0.673274
2.98500	58.851	-0.673135
2.98667	58.868	-0.672922
2.98833	58.884	-0.672572
2.99000	58.902	-0.672271
2.99167	58.918	-0.671820
2.99333	58.935	-0.671557
2.99500	58.952	-0.671283
2.99667	58.969	-0.671002
2.99833	58.985	-0.670788
3.00000	59.002	-0.670620
3.00167	59.018	-0.670404
3.00333	59.035	-0.670298
3.00500	59.051	-0.670178
3.00667	59.067	-0.670052
3.00833	59.084	-0.669895
3.01000	59.100	-0.669704
3.01167	59.118	-0.669498
3.01333	59.134	-0.669227
3.01500	59.151	-0.668905
3.01667	59.168	-0.668694
3.01833	59.185	-0.668436
3.02000	59.201	-0.668227
3.02167	59.218	-0.668066
3.02333	59.235	-0.667893
3.02500	59.252	-0.667772
3.02667	59.269	-0.667662
3.02833	59.285	-0.667570
3.03000	59.302	-0.667468
3.03167	59.318	-0.667350
3.03333	59.335	-0.667215
3.03500	59.352	-0.667080
3.03667	59.368	-0.666943
3.03833	59.384	-0.666783
3.04000	59.402	-0.666638
3.04167	59.418	-0.666492
3.04333	59.435	-0.666358
3.04500	59.452	-0.666251
3.04667	59.468	-0.666180
3.04833	59.485	-0.666104
3.05000	59.502	-0.666011
3.05167	59.519	-0.665898
3.05333	59.536	-0.665774
3.05500	59.552	-0.665662
3.05667	59.569	-0.665563
3.05833	59.584	-0.665464
3.06000	59.601	-0.665363
3.06167	59.618	-0.665251
3.06333	59.635	-0.665155
3.06500	59.651	-0.665071
3.06667	59.668	-0.665003
3.06833	59.684	-0.664924
3.07000	59.702	-0.664822
3.07167	59.718	-0.664727
3.07333	59.736	-0.664630
3.07500	59.752	-0.664536
3.07667	59.768	-0.664433
3.07833	59.784	-0.664342
3.08000	59.801	-0.664247
3.08167	59.818	-0.664165
3.08333	59.835	-0.664073
3.08500	59.851	-0.663996
3.08667	59.868	-0.663918
3.08833	59.885	-0.663828
3.09000	59.903	-0.663743
3.09167	59.919	-0.663666
3.09333	59.935	-0.663575
3.09500	59.952	-0.663489
3.09667	59.969	-0.663418
3.09833	59.985	-0.663347
3.10000	60.002	-0.663313
3.10167	60.019	-0.663289
3.10333	60.034	-0.663264
3.10500	60.052	-0.663231
3.10667	60.069	-0.663202
3.10833	60.085	-0.663181
3.11000	60.102	-0.663162
3.11167	60.118	-0.663143
3.11333	60.135	-0.663135
3.11500	60.152	-0.663138
3.11667	60.168	-0.663127
3.11833	60.185	-0.663110
3.12000	60.202	-0.663104
3.12167	60.218	-0.663088
3.12333	60.235	-0.663067
3.12500	60.252	-0.663033
3.12667	60.268	-0.662991
3.12833	60.284	-0.662957
3.13000	60.301	-0.662945
3.13167	60.318	-0.662945
3.13333	60.335	-0.662954
3.13500	60.352	-0.662975
3.13667	60.369	-0.663004
3.13833	60.386	-0.663025
3.14000	60.402	-0.663053
3.14167	60.418	-0.663078
3.14333	60.435	-0.663082
3.14500	60.452	-0.663077
3.14667	60.469	-0.663088
3.14833	60.485	-0.663153
3.15000	60.502	-0.663216
3.15167	60.519	-0.663390
3.15333	60.535	-0.663555
3.15500	60.551	-0.663791
3.15667	60.567	-0.663977
3.15833	60.584	-0.664071
3.16000	60.601	-0.664124
3.16167	60.619	-0.664164
3.16333	60.635	-0.664201
3.16500	60.651	-0.664252
3.16667	60.669	-0.664385
3.16833	60.685	-0.664478
3.17000	60.703	-0.664636
3.17167	60.719	-0.664831
3.17333	60.735	-0.665093
3.17500	60.752	-0.665258
3.17667	60.769	-0.665478
3.17833	60.785	-0.665563
3.18000	60.802	-0.665633
3.18167	60.819	-0.665698
3.18333	60.836	-0.665747
3.18500	60.853	-0.665793
3.18667	60.869	-0.665830
3.18833	60.886	-0.665873
3.19000	60.902	-0.665947
3.19167	60.918	-0.666024
3.19333	60.934	-0.666122
3.19500	60.951	-0.666324
3.19667	60.968	-0.666691
3.19833	60.986	-0.667213
3.20000	61.002	-0.667803
3.20167	61.018	-0.668249
3.20333	61.035	-0.668623
3.20500	61.052	-0.668780
3.20667	61.068	-0.668959
3.20833	61.085	-0.669222
3.21000	61.101	-0.669569
3.21167	61.119	-0.670015
3.21333	61.135	-0.670399
3.21500	61.152	-0.670836
3.21667	61.168	-0.671343
3.21833	61.185	-0.671852
3.22000	61.202	-0.672258
3.22167	61.219	-0.672466
3.22333	61.235	-0.672604
3.22500	61.252	-0.672812
3.22667	61.268	-0.673092
3.22833	61.286	-0.673473
3.23000	61.302	-0.674063
3.23167	61.319	-0.674627
3.23333	61.335	-0.675638
3.23500	61.351	-0.677504
3.23667	61.368	-0.679278
3.23833	61.385	-0.681022
3.24000	61.402	-0.682370
3.24167	61.419	-0.683529
3.24333	61.435	-0.684418
3.24500	61.452	-0.685122
3.24667	61.468	-0.685472
3.24833	61.485	-0.685768
3.25000	61.502	-0.686183
3.25167	61.519	-0.686429
3.25333	61.536	-0.686842
3.25500	61.553	-0.687297
3.25667	61.569	-0.687683
3.25833	61.585	-0.688113
3.26000	61.603	-0.688672
3.26167	61.619	-0.689193
3.26333	61.636	-0.689744
3.26500	61.652	-0.690019
3.26667	61.669	-0.690582
3.26833	61.686	-0.690839
3.27000	61.702	-0.691246
3.27167	61.718	-0.691735
3.27333	61.735	-0.692524
3.27500	61.752	-0.693790
3.27667	61.768	-0.694905
3.27833	61.785	-0.696122
3.28000	61.802	-0.697634
3.28167	61.819	-0.698986
3.28333	61.835	-0.700181
3.28500	61.852	-0.701892
3.28667	61.868	-0.702701
3.28833	61.886	-0.703357
3.29000	61.902	-0.703820
3.29167	61.918	-0.704302
3.29333	61.935	-0.704771
3.29500	61.951	-0.705314
3.29667	61.968	-0.705554
3.29833	61.986	-0.705878
3.30000	62.003	-0.706414
3.30167	62.018	-0.707536
3.30333	62.034	-0.709234
3.30500	62.051	-0.710656
3.30667	62.069	-0.712101
3.30833	62.085	-0.713718
3.31000	62.101	-0.715962
3.31167	62.119	-0.718103
3.31333	62.135	-0.719605
3.31500	62.152	-0.720405
3.31667	62.168	-0.721012
3.31833	62.186	-0.721849
3.32000	62.201	-0.722512
3.32167	62.218	-0.723619
3.32333	62.234	-0.724289
3.32500	62.251	-0.725094
3.32667	62.267	-0.725858
3.32833	62.283	-0.727210
3.33000	62.300	-0.728232
3.33167	62.317	-0.728998
3.33333	62.333	-0.729547
3.33500	62.350	-0.729800
3.33667	62.368	-0.730211
3.33833	62.384	-0.730551
3.34000	62.400	-0.731066
3.34167	62.416	-0.731678
3.34333	62.433	-0.733063
3.34500	62.450	-0.734721
3.34667	62.467	-0.736572
3.34833	62.483	-0.738392
3.35000	62.501	-0.740425
3.35167	62.518	-0.742748
3.35333	62.534	-0.744620
3.35500	62.550	-0.747126
3.35667	62.567	-0.749145
3.35833	62.584	-0.750350
3.36000	62.601	-0.751313
3.36167	62.617	-0.752469
3.36333	62.634	-0.753774
3.36500	62.650	-0.754442
3.36667	62.667	-0.754714
3.36833	62.683	-0.755148
3.37000	62.700	-0.755615
3.37167	62.718	-0.756371
3.37333	62.733	-0.757191
3.37500	62.751	-0.758109
3.37667	62.766	-0.759201
3.37833	62.783	-0.760464
3.38000	62.801	-0.761706
3.38167	62.817	-0.763271
3.38333	62.834	-0.765207
3.38500	62.850	-0.767058
3.38667	62.867	-0.769584
3.38833	62.884	-0.771920
3.39000	62.900	-0.773969
3.39167	62.917	-0.775293
3.39333	62.933	-0.776274
3.39500	62.950	-0.777157
3.39667	62.968	-0.777907
3.39833	62.984	-0.778443
3.40000	63.000	-0.778905
3.40167	63.018	-0.779276
3.40333	63.033	-0.780049
3.40500	63.051	-0.780626
3.40667	63.068	-0.781140
3.40833	63.085	-0.781526
3.41000	63.100	-0.781979
3.41167	63.117	-0.782419
3.41333	63.134	-0.782717
3.41500	63.151	-0.783155
3.41667	63.167	-0.783861
3.41833	63.185	-0.784947
3.42000	63.201	-0.785923
3.42167	63.218	-0.787385
3.42333	63.235	-0.788484
3.42500	63.250	-0.789569
3.42667	63.267	-0.790423
3.42833	63.284	-0.791453
3.43000	63.301	-0.792161
3.43167	63.317	-0.792684
3.43333	63.335	-0.793185
3.43500	63.351	-0.793680
3.43667	63.368	-0.794377
3.43833	63.383	-0.795547
3.44000	63.401	-0.796831
3.44167	63.417	-0.798026
3.44333	63.434	-0.799786
3.44500	63.451	-0.801372
3.44667	63.467	-0.802876
3.44833	63.484	-0.804157
3.45000	63.501	-0.804839
3.45167	63.517	-0.805379
3.45333	63.535	-0.805718
3.45500	63.552	-0.805852
3.45667	63.568	-0.806092
3.45833	63.585	-0.806357
3.46000	63.602	-0.806824
3.46167	63.617	-0.807454
3.46333	63.634	-0.808171
3.46500	63.652	-0.809204
3.46667	63.668	-0.810387
3.46833	63.685	-0.811587
3.47000	63.701	-0.813451
3.47167	63.718	-0.815650
3.47333	63.734	-0.817144
3.47500	63.751	-0.818484
3.47667	63.768	-0.819600
3.47833	63.785	-0.820735
3.48000	63.801	-0.821587
3.48167	63.819	-0.822264
3.48333	63.834	-0.822856
3.48500	63.852	-0.823390
3.48667	63.868	-0.823710
3.48833	63.885	-0.824048
3.49000	63.901	-0.824547
3.49167	63.918	-0.825094
3.49333	63.935	-0.825611
3.49500	63.950	-0.826158
3.49667	63.968	-0.826706
3.49833	63.986	-0.827612
3.50000	64.001	-0.828545
3.50167	64.018	-0.829451
3.50333	64.035	-0.830500
3.50500	64.052	-0.831199
3.50667	64.067	-0.831491
3.50833	64.085	-0.831793
3.51000	64.100	-0.832076
3.51167	64.117	-0.832370
3.51333	64.134	-0.832825
3.51500	64.150	-0.833164
3.51667	64.168	-0.834088
3.51833	64.184	-0.835145
3.52000	64.202	-0.836540
3.52167	64.218	-0.838296
3.52333	64.234	-0.839863
3.52500	64.251	-0.840981
3.52667	64.268	-0.842083
3.52833	64.285	-0.843185
3.53000	64.302	-0.843858
3.53167	64.318	-0.844292
3.53333	64.334	-0.844880
3.53500	64.352	-0.845014
3.53667	64.368	-0.845200
3.53833	64.385	-0.845520
3.54000	64.402	-0.846010
3.54167	64.418	-0.846527
3.54333	64.433	-0.847149
3.54500	64.451	-0.847856
3.54667	64.467	-0.848736
3.54833	64.485	-0.849800
3.55000	64.501	-0.850516
3.55167	64.517	-0.850709
3.55333	64.535	-0.850852
3.55500	64.552	-0.851058
3.55667	64.568	-0.851281
3.55833	64.584	-0.851557
3.56000	64.601	-0.852212
3.56167	64.618	-0.853351
3.56333	64.634	-0.854783
3.56500	64.651	-0.856585
3.56667	64.668	-0.858872
3.56833	64.685	-0.861291
3.57000	64.702	-0.862739
3.57167	64.719	-0.863741
3.57333	64.735	-0.864412
3.57500	64.752	-0.864935
3.57667	64.768	-0.865650
3.57833	64.784	-0.866453
3.58000	64.801	-0.867003
3.58167	64.817	-0.867784
3.58333	64.834	-0.868371
3.58500	64.851	-0.868859
3.58667	64.867	-0.869415
3.58833	64.884	-0.869828
3.59000	64.902	-0.870171
3.59167	64.917	-0.870528
3.59333	64.935	-0.870905
3.59500	64.952	-0.871517
3.59667	64.968	-0.872446
3.59833	64.985	-0.873211
3.60000	65.002	-0.873836
3.60167	65.018	-0.874209
3.60333	65.035	-0.874345
3.60500	65.052	-0.874515
3.60667	65.069	-0.874641
3.60833	65.085	-0.875138
3.61000	65.102	-0.875237
3.61167	65.119	-0.875695
3.61333	65.136	-0.875859
3.61500	65.152	-0.875959
3.61667	65.169	-0.876226
3.61833	65.185	-0.876312
3.62000	65.202	-0.876414
3.62167	65.218	-0.876537
3.62333	65.235	-0.876766
3.62500	65.253	-0.877172
3.62667	65.269	-0.877506
3.62833	65.286	-0.878141
3.63000	65.302	-0.878916
3.63167	65.318	-0.879647
3.63333	65.334	-0.880229
3.63500	65.351	-0.880524
3.63667	65.367	-0.880657
3.63833	65.384	-0.880929
3.64000	65.400	-0.881271
3.64167	65.418	-0.881578
3.64333	65.435	-0.881769
3.64500	65.452	-0.881894
3.64667	65.469	-0.882038
3.64833	65.485	-0.882198
3.65000	65.502	-0.882337
3.65167	65.518	-0.882604
3.65333	65.534	-0.882999
3.65500	65.551	-0.883299
3.65667	65.567	-0.883796
3.65833	65.584	-0.884329
3.66000	65.601	-0.885026
3.66167	65.618	-0.885505
3.66333	65.634	-0.885943
3.66500	65.652	-0.886376
3.66667	65.668	-0.886773
3.66833	65.684	-0.886926
3.67000	65.702	-0.887116
3.67167	65.718	-0.887276
3.67333	65.735	-0.887429
3.67500	65.751	-0.887584
3.67667	65.768	-0.887741
3.67833	65.785	-0.887904
3.68000	65.801	-0.888085
3.68167	65.818	-0.888334
3.68333	65.836	-0.888612
3.68500	65.851	-0.888839
3.68667	65.869	-0.888996
3.68833	65.884	-0.889161
3.69000	65.902	-0.889315
3.69167	65.919	-0.889578
3.69333	65.935	-0.889751
3.69500	65.951	-0.889926
3.69667	65.968	-0.890091
3.69833	65.986	-0.890271
3.70000	66.001	-0.890628
3.70167	66.019	-0.890959
3.70333	66.036	-0.891138
3.70500	66.052	-0.891316
3.70667	66.069	-0.891555
3.70833	66.084	-0.891741
3.71000	66.102	-0.891958
3.71167	66.118	-0.892231
3.71333	66.135	-0.892610
3.71500	66.152	-0.892810
3.71667	66.168	-0.893037
3.71833	66.185	-0.893221
3.72000	66.203	-0.893416
3.72167	66.219	-0.893599
3.72333	66.235	-0.893775
3.72500	66.251	-0.893950
3.72667	66.268	-0.894129
3.72833	66.284	-0.894307
3.73000	66.301	-0.894503
3.73167	66.318	-0.894769
3.73333	66.335	-0.895149
3.73500	66.351	-0.895505
3.73667	66.369	-0.895760
3.73833	66.386	-0.895974
3.74000	66.403	-0.896166
3.74167	66.419	-0.896364
3.74333	66.435	-0.896553
3.74500	66.451	-0.896775
3.74667	66.469	-0.896939
3.74833	66.486	-0.897111
3.75000	66.502	-0.897265
3.75167	66.519	-0.897425
3.75333	66.536	-0.897586
3.75500	66.553	-0.897768
3.75667	66.568	-0.897955
3.75833	66.586	-0.898193
3.76000	66.602	-0.898593
3.76167	66.619	-0.898953
3.76333	66.636	-0.899363
3.76500	66.652	-0.899755
3.76667	66.669	-0.900025
3.76833	66.686	-0.900266
3.77000	66.702	-0.900430
3.77167	66.719	-0.900562
3.77333	66.736	-0.900682
3.77500	66.752	-0.900798
3.77667	66.769	-0.900936
3.77833	66.786	-0.901078
3.78000	66.802	-0.901227
3.78167	66.820	-0.901402
3.78333	66.836	-0.901594
3.78500	66.852	-0.901794
3.78667	66.870	-0.901996
3.78833	66.886	-0.902200
3.79000	66.904	-0.902404
3.79167	66.919	-0.902611
3.79333	66.937	-0.902818
3.79500	66.953	-0.903144
3.79667	66.971	-0.903353
3.79833	66.986	-0.903555
3.80000	67.003	-0.903764
3.80167	67.020	-0.903963
3.80333	67.037	-0.904136
3.80500	67.054	-0.904287
3.80667	67.070	-0.904431
3.80833	67.087	-0.904567
3.81000	67.103	-0.904694
3.81167	67.120	-0.904834
3.81333	67.137	-0.904996
3.81500	67.153	-0.905163
3.81667	67.169	-0.905348
3.81833	67.188	-0.905543
3.82000	67.203	-0.905750
3.82167	67.220	-0.905946
3.82333	67.237	-0.906119
3.82500	67.253	-0.906291
3.82667	67.270	-0.906452
3.82833	67.287	-0.906607
3.83000	67.304	-0.906767
3.83167	67.321	-0.906929
3.83333	67.336	-0.907088
3.83500	67.353	-0.907261
3.83667	67.370	-0.907443
3.83833	67.388	-0.907623
3.84000	67.403	-0.907802
3.84167	67.420	-0.907971
3.84333	67.436	-0.908139
3.84500	67.454	-0.908304
3.84667	67.470	-0.908437
3.84833	67.487	-0.908558
3.85000	67.504	-0.908691
3.85167	67.520	-0.908812
3.85333	67.537	-0.908927
3.85500	67.552	-0.909068
3.85667	67.570	-0.909215
3.85833	67.587	-0.909359
3.86000	67.604	-0.909521
3.86167	67.620	-0.909691
3.86333	67.637	-0.909946
3.86500	67.654	-0.910283
3.86667	67.671	-0.910551
3.86833	67.688	-0.910825
3.87000	67.704	-0.911007
3.87167	67.720	-0.911182
3.87333	67.737	-0.911354
3.87500	67.753	-0.911523
3.87667	67.770	-0.911693
3.87833	67.787	-0.911854
3.88000	67.804	-0.912019
3.88167	67.820	-0.912194
3.88333	67.837	-0.912377
3.88500	67.854	-0.912548
3.88667	67.871	-0.912708
3.88833	67.888	-0.912847
3.89000	67.904	-0.912978
3.89167	67.920	-0.913100
3.89333	67.937	-0.913228
3.89500	67.954	-0.913356
3.89667	67.971	-0.913499
3.89833	67.988	-0.913659
3.90000	68.004	-0.913839
3.90167	68.021	-0.914023
3.90333	68.037	-0.914217
3.90500	68.053	-0.914385
3.90667	68.071	-0.914572
3.90833	68.087	-0.914755
3.91000	68.105	-0.914941
3.91167	68.121	-0.915123
3.91333	68.139	-0.915295
3.91500	68.154	-0.915462
3.91667	68.171	-0.915617
3.91833	68.189	-0.915784
3.92000	68.206	-0.915950
3.92167	68.222	-0.916105
3.92333	68.238	-0.916265
3.92500	68.255	-0.916426
3.92667	68.272	-0.916589
3.92833	68.288	-0.916758
3.93000	68.305	-0.916935
3.93167	68.322	-0.917105
3.93333	68.337	-0.917258
3.93500	68.355	-0.917393
3.93667	68.372	-0.917525
3.93833	68.388	-0.917651
3.94000	68.405	-0.917769
3.94167	68.421	-0.917904
3.94333	68.438	-0.918027
3.94500	68.454	-0.918160
3.94667	68.472	-0.918287
3.94833	68.487	-0.918430
3.95000	68.506	-0.918569
3.95167	68.522	-0.918719
3.95333	68.538	-0.918850
3.95500	68.555	-0.918976
3.95667	68.572	-0.919118
3.95833	68.588	-0.919263
3.96000	68.605	-0.919416
3.96167	68.621	-0.919541
3.96333	68.638	-0.919667
3.96500	68.655	-0.919785
3.96667	68.672	-0.919915
3.96833	68.688	-0.920067
3.97000	68.706	-0.920237
3.97167	68.723	-0.920422
3.97333	68.740	-0.920699
3.97500	68.756	-0.921027
3.97667	68.774	-0.921428
3.97833	68.789	-0.921608
3.98000	68.806	-0.921767
3.98167	68.822	-0.921922
3.98333	68.839	-0.922056
3.98500	68.855	-0.922179
3.98667	68.872	-0.922316
3.98833	68.888	-0.922457
3.99000	68.906	-0.922605
3.99167	68.922	-0.922760
3.99333	68.939	-0.922909
3.99500	68.955	-0.923054
3.99667	68.972	-0.923182
3.99833	68.989	-0.923321
4.00000	69.006	-0.923468
4.00167	69.023	-0.923618
4.00333	69.039	-0.923765
4.00500	69.057	-0.923913
4.00667	69.073	-0.924063
4.00833	69.088	-0.924234
4.01000	69.107	-0.924417
4.01167	69.122	-0.924599
4.01333	69.139	-0.924750
4.01500	69.155	-0.924878
4.01667	69.173	-0.924989
4.01833	69.189	-0.925069
4.02000	69.206	-0.925134
4.02167	69.222	-0.925201
4.02333	69.239	-0.925266
4.02500	69.256	-0.925332
4.02667	69.272	-0.925424
4.02833	69.289	-0.925539
4.03000	69.305	-0.925662
4.03167	69.322	-0.925799
4.03333	69.339	-0.925944
4.03500	69.356	-0.926087
4.03667	69.373	-0.926223
4.03833	69.390	-0.926362
4.04000	69.407	-0.926494
4.04167	69.422	-0.926643
4.04333	69.439	-0.926820
4.04500	69.457	-0.926989
4.04667	69.473	-0.927197
4.04833	69.490	-0.927362
4.05000	69.505	-0.927538
4.05167	69.523	-0.927713
4.05333	69.540	-0.927874
4.05500	69.556	-0.928019
4.05667	69.572	-0.928150
4.05833	69.589	-0.928288
4.06000	69.605	-0.928443
4.06167	69.622	-0.928607
4.06333	69.640	-0.928772
4.06500	69.657	-0.928942
4.06667	69.672	-0.929107
4.06833	69.690	-0.929268
4.07000	69.707	-0.929427
4.07167	69.723	-0.929567
4.07333	69.740	-0.929695
4.07500	69.757	-0.929832
4.07667	69.773	-0.929975
4.07833	69.791	-0.930126
4.08000	69.806	-0.930277
4.08167	69.824	-0.930422
4.08333	69.840	-0.930565
4.08500	69.856	-0.930711
4.08667	69.873	-0.930844
4.08833	69.890	-0.930961
4.09000	69.907	-0.931079
4.09167	69.923	-0.931207
4.09333	69.939	-0.931345
4.09500	69.957	-0.931475
4.09667	69.972	-0.931594
4.09833	69.990	-0.931708
4.10000	70.007	-0.931797
4.10167	70.024	-0.931874
4.10333	70.041	-0.931965
4.10500	70.056	-0.932055
4.10667	70.074	-0.932147
4.10833	70.089	-0.932263
4.11000	70.107	-0.932409
4.11167	70.123	-0.932574
4.11333	70.140	-0.932741
4.11500	70.156	-0.932904
4.11667	70.174	-0.933078
4.11833	70.190	-0.933243
4.12000	70.207	-0.933384
4.12167	70.224	-0.933526
4.12333	70.240	-0.933660
4.12500	70.256	-0.933795
4.12667	70.273	-0.933926
4.12833	70.290	-0.934067
4.13000	70.306	-0.934193
4.13167	70.323	-0.934308
4.13333	70.341	-0.934396
4.13500	70.357	-0.934511
4.13667	70.374	-0.934650
4.13833	70.391	-0.934776
4.14000	70.406	-0.934906
4.14167	70.423	-0.935042
4.14333	70.440	-0.935173
4.14500	70.457	-0.935284
4.14667	70.473	-0.935385
4.14833	70.490	-0.935479
4.15000	70.507	-0.935569
4.15167	70.524	-0.935643
4.15333	70.540	-0.935731
4.15500	70.557	-0.935824
4.15667	70.574	-0.935932
4.15833	70.590	-0.936053
4.16000	70.607	-0.936173
4.16167	70.623	-0.936296
4.16333	70.640	-0.936415
4.16500	70.657	-0.936521
4.16667	70.674	-0.936653
4.16833	70.692	-0.936779
4.17000	70.708	-0.936906
4.17167	70.724	-0.937040
4.17333	70.740	-0.937165
4.17500	70.757	-0.937310
4.17667	70.772	-0.937456
4.17833	70.790	-0.937578
4.18000	70.808	-0.937685
4.18167	70.823	-0.937800
4.18333	70.841	-0.937927
4.18500	70.857	-0.938050
4.18667	70.873	-0.938188
4.18833	70.890	-0.938324
4.19000	70.907	-0.938460
4.19167	70.924	-0.938599
4.19333	70.941	-0.938740
4.19500	70.957	-0.938865
4.19667	70.974	-0.938974
4.19833	70.992	-0.939080
4.20000	71.008	-0.939197
4.20167	71.024	-0.939318
4.20333	71.041	-0.939434
4.20500	71.057	-0.939557
4.20667	71.074	-0.939673
4.20833	71.091	-0.939791
4.21000	71.108	-0.939894
4.21167	71.125	-0.939980
4.21333	71.140	-0.940058
4.21500	71.157	-0.940145
4.21667	71.175	-0.940239
4.21833	71.191	-0.940362
4.22000	71.208	-0.940508
4.22167	71.225	-0.940719
4.22333	71.241	-0.940872
4.22500	71.257	-0.941012
4.22667	71.274	-0.941149
4.22833	71.290	-0.941265
4.23000	71.308	-0.941374
4.23167	71.324	-0.941466
4.23333	71.341	-0.941574
4.23500	71.358	-0.941695
4.23667	71.374	-0.941832
4.23833	71.391	-0.941988
4.24000	71.408	-0.942214
4.24167	71.424	-0.942366
4.24333	71.441	-0.942507
4.24500	71.458	-0.942646
4.24667	71.475	-0.942762
4.24833	71.491	-0.942863
4.25000	71.508	-0.942944
4.25167	71.525	-0.943018
4.25333	71.542	-0.943109
4.25500	71.559	-0.943196
4.25667	71.575	-0.943285
4.25833	71.592	-0.943382
4.26000	71.609	-0.943471
4.26167	71.626	-0.943562
4.26333	71.642	-0.943668
4.26500	71.659	-0.943769
4.26667	71.676	-0.943874
4.26833	71.693	-0.943985
4.27000	71.709	-0.944100
4.27167	71.725	-0.944208
4.27333	71.742	-0.944316
4.27500	71.760	-0.944433
4.27667	71.775	-0.944534
4.27833	71.792	-0.944630
4.28000	71.809	-0.944699
4.28167	71.826	-0.944776
4.28333	71.842	-0.944848
4.28500	71.859	-0.944935
4.28667	71.876	-0.945054
4.28833	71.893	-0.945190
4.29000	71.909	-0.945308
4.29167	71.926	-0.945420
4.29333	71.942	-0.945539
4.29500	71.959	-0.945654
4.29667	71.976	-0.945776
4.29833	71.993	-0.945864
4.30000	72.009	-0.945922
4.30167	72.026	-0.945979
4.30333	72.042	-0.946039
4.30500	72.059	-0.946118
4.30667	72.075	-0.946221
4.30833	72.093	-0.946322
4.31000	72.108	-0.946425
4.31167	72.125	-0.946511
4.31333	72.143	-0.946591
4.31500	72.159	-0.946668
4.31667	72.175	-0.946743
4.31833	72.192	-0.946821
4.32000	72.208	-0.946895
4.32167	72.225	-0.946958
4.32333	72.242	-0.947040
4.32500	72.258	-0.947159
4.32667	72.275	-0.947297
4.32833	72.292	-0.947633
4.33000	72.309	-0.947799
4.33167	72.325	-0.947925
4.33333	72.342	-0.948027
4.33500	72.360	-0.948113
4.33667	72.376	-0.948202
4.33833	72.393	-0.948256
4.34000	72.410	-0.948302
4.34167	72.426	-0.948343
4.34333	72.443	-0.948394
4.34500	72.460	-0.948494
4.34667	72.476	-0.948620
4.34833	72.492	-0.948763
4.35000	72.509	-0.948893
4.35167	72.527	-0.948994
4.35333	72.543	-0.949087
4.35500	72.559	-0.949186
4.35667	72.575	-0.949264
4.35833	72.593	-0.949323
4.36000	72.609	-0.949373
4.36167	72.626	-0.949423
4.36333	72.643	-0.949473
4.36500	72.658	-0.949520
4.36667	72.675	-0.949565
4.36833	72.692	-0.949619
4.37000	72.710	-0.949686
4.37167	72.726	-0.949741
4.37333	72.744	-0.949796
4.37500	72.759	-0.949855
4.37667	72.776	-0.949915
4.37833	72.793	-0.949996
4.38000	72.810	-0.950072
4.38167	72.827	-0.950162
4.38333	72.842	-0.950238
4.38500	72.860	-0.950312
4.38667	72.877	-0.950396
4.38833	72.893	-0.950479
4.39000	72.909	-0.950587
4.39167	72.926	-0.950690
4.39333	72.944	-0.950795
4.39500	72.960	-0.950898
4.39667	72.976	-0.951019
4.39833	72.994	-0.951123
4.40000	73.009	-0.951209
4.40167	73.026	-0.951290
4.40333	73.042	-0.951392
4.40500	73.059	-0.951493
4.40667	73.076	-0.951565
4.40833	73.093	-0.951627
4.41000	73.110	-0.951677
4.41167	73.127	-0.951747
4.41333	73.143	-0.951812
4.41500	73.159	-0.951879
4.41667	73.177	-0.951930
4.41833	73.194	-0.951949
4.42000	73.209	-0.951964
4.42167	73.228	-0.952005
4.42333	73.244	-0.952069
4.42500	73.259	-0.952147
4.42667	73.277	-0.952209
4.42833	73.293	-0.952271
4.43000	73.310	-0.952337
4.43167	73.327	-0.952415
4.43333	73.345	-0.952511
4.43500	73.361	-0.952596
4.43667	73.377	-0.952675
4.43833	73.393	-0.952767
4.44000	73.409	-0.952848
4.44167	73.427	-0.952920
4.44333	73.444	-0.953013
4.44500	73.460	-0.953111
4.44667	73.477	-0.953187
4.44833	73.493	-0.953251
4.45000	73.510	-0.953306
4.45167	73.527	-0.953354
4.45333	73.543	-0.953385
4.45500	73.560	-0.953436
4.45667	73.577	-0.953501
4.45833	73.593	-0.953586
4.46000	73.609	-0.953684
4.46167	73.627	-0.953789
4.46333	73.645	-0.953889
4.46500	73.660	-0.953977
4.46667	73.678	-0.954049
4.46833	73.694	-0.954104
4.47000	73.710	-0.954126
4.47167	73.726	-0.954151
4.47333	73.743	-0.954190
4.47500	73.760	-0.954221
4.47667	73.775	-0.954274
4.47833	73.793	-0.954343
4.48000	73.810	-0.954435
4.48167	73.827	-0.954513
4.48333	73.844	-0.954597
4.48500	73.861	-0.954663
4.48667	73.876	-0.954714
4.48833	73.893	-0.954765
4.49000	73.910	-0.954826
4.49167	73.927	-0.954899
4.49333	73.943	-0.954987
4.49500	73.960	-0.955062
4.49667	73.976	-0.955141
4.49833	73.993	-0.955227
4.50000	74.010	-0.955311
4.50167	74.027	-0.955407
4.50333	74.043	-0.955485
4.50500	74.059	-0.955540
4.50667	74.077	-0.955594
4.50833	74.093	-0.955646
4.51000	74.110	-0.955684
4.51167	74.127	-0.955726
4.51333	74.144	-0.955788
4.51500	74.160	-0.955871
4.51667	74.177	-0.955965
4.51833	74.194	-0.956070
4.52000	74.210	-0.956170
4.52167	74.227	-0.956273
4.52333	74.244	-0.956368
4.52500	74.260	-0.956445
4.52667	74.276	-0.956515
4.52833	74.294	-0.956583
4.53000	74.311	-0.956653
4.53167	74.327	-0.956742
4.53333	74.342	-0.956852
4.53500	74.359	-0.956947
4.53667	74.378	-0.957044
4.53833	74.394	-0.957132
4.54000	74.410	-0.957207
4.54167	74.427	-0.957282
4.54333	74.444	-0.957330
4.54500	74.461	-0.957358
4.54667	74.478	-0.957391
4.54833	74.495	-0.957421
4.55000	74.513	-0.957463
4.55167	74.528	-0.957502
4.55333	74.544	-0.957520
4.55500	74.560	-0.957534
4.55667	74.577	-0.957554
4.55833	74.594	-0.957581
4.56000	74.610	-0.957625
4.56167	74.627	-0.957653
4.56333	74.645	-0.957681
4.56500	74.661	-0.957734
4.56667	74.677	-0.957807
4.56833	74.694	-0.957901
4.57000	74.711	-0.957997
4.57167	74.727	-0.958081
4.57333	74.744	-0.958169
4.57500	74.761	-0.958262
4.57667	74.778	-0.958350
4.57833	74.795	-0.958428
4.58000	74.811	-0.958497
4.58167	74.828	-0.958544
4.58333	74.844	-0.958586
4.58500	74.861	-0.958640
4.58667	74.877	-0.958698
4.58833	74.894	-0.958726
4.59000	74.910	-0.958748
4.59167	74.928	-0.958773
4.59333	74.943	-0.958801
4.59500	74.961	-0.958859
4.59667	74.977	-0.958921
4.59833	74.994	-0.958988
4.60000	75.011	-0.959059
4.60167	75.028	-0.959117
4.60333	75.044	-0.959157
4.60500	75.061	-0.959197
4.60667	75.078	-0.959237
4.60833	75.094	-0.959287
4.61000	75.112	-0.959361
4.61167	75.128	-0.959428
4.61333	75.145	-0.959508
4.61500	75.161	-0.959625
4.61667	75.178	-0.959815
4.61833	75.195	-0.960015
4.62000	75.211	-0.960119
4.62167	75.228	-0.960194
4.62333	75.244	-0.960229
4.62500	75.261	-0.960248
4.62667	75.278	-0.960276
4.62833	75.295	-0.960305
4.63000	75.311	-0.960315
4.63167	75.327	-0.960319
4.63333	75.344	-0.960348
4.63500	75.361	-0.960408
4.63667	75.377	-0.960494
4.63833	75.395	-0.960618
4.64000	75.411	-0.960750
4.64167	75.428	-0.960864
4.64333	75.445	-0.960954
4.64500	75.461	-0.961032
4.64667	75.478	-0.961102
4.64833	75.494	-0.961148
4.65000	75.511	-0.961189
4.65167	75.527	-0.961236
4.65333	75.545	-0.961284
4.65500	75.560	-0.961346
4.65667	75.577	-0.961409
4.65833	75.593	-0.961472
4.66000	75.610	-0.961541
4.66167	75.627	-0.961609
4.66333	75.644	-0.961682
4.66500	75.661	-0.961746
4.66667	75.677	-0.961814
4.66833	75.694	-0.961904
4.67000	75.710	-0.961995
4.67167	75.727	-0.962089
4.67333	75.744	-0.962188
4.67500	75.761	-0.962270
4.67667	75.777	-0.962350
4.67833	75.794	-0.962430
4.68000	75.811	-0.962494
4.68167	75.828	-0.962547
4.68333	75.845	-0.962601
4.68500	75.860	-0.962659
4.68667	75.878	-0.962741
4.68833	75.894	-0.962824
4.69000	75.911	-0.962909
4.69167	75.928	-0.962985
4.69333	75.945	-0.963048
4.69500	75.961	-0.963094
4.69667	75.977	-0.963135
4.69833	75.995	-0.963156
4.70000	76.011	-0.963181
4.70167	76.028	-0.963216
4.70333	76.045	-0.963255
4.70500	76.061	-0.963299
4.70667	76.078	-0.963352
4.70833	76.095	-0.963403
4.71000	76.112	-0.963465
4.71167	76.128	-0.963556
4.71333	76.145	-0.963645
4.71500	76.162	-0.963739
4.71667	76.178	-0.963834
4.71833	76.195	-0.963932
4.72000	76.211	-0.964044
4.72167	76.228	-0.964166
4.72333	76.245	-0.964282
4.72500	76.262	-0.964394
4.72667	76.279	-0.964481
4.72833	76.295	-0.964557
4.73000	76.312	-0.964636
4.73167	76.329	-0.964684
4.73333	76.345	-0.964709
4.73500	76.362	-0.964724
4.73667	76.380	-0.964742
4.73833	76.395	-0.964772
4.74000	76.411	-0.964824
4.74167	76.428	-0.964898
4.74333	76.445	-0.964995
4.74500	76.461	-0.965129
4.74667	76.479	-0.965452
4.74833	76.495	-0.965776
4.75000	76.512	-0.965877
4.75167	76.528	-0.965958
4.75333	76.545	-0.966025
4.75500	76.561	-0.966087
4.75667	76.578	-0.966136
4.75833	76.595	-0.966190
4.76000	76.611	-0.966247
4.76167	76.628	-0.966314
4.76333	76.646	-0.966397
4.76500	76.662	-0.966491
4.76667	76.679	-0.966581
4.76833	76.696	-0.966659
4.77000	76.712	-0.966731
4.77167	76.729	-0.966797
4.77333	76.746	-0.966856
4.77500	76.762	-0.966904
4.77667	76.779	-0.966924
4.77833	76.796	-0.966940
4.78000	76.813	-0.966977
4.78167	76.829	-0.967027
4.78333	76.846	-0.967090
4.78500	76.863	-0.967139
4.78667	76.878	-0.967201
4.78833	76.896	-0.967258
4.79000	76.912	-0.967320
4.79167	76.928	-0.967388
4.79333	76.945	-0.967446
4.79500	76.962	-0.967509
4.79667	76.978	-0.967570
4.79833	76.994	-0.967632
4.80000	77.012	-0.967695
4.80167	77.029	-0.967765
4.80333	77.046	-0.967827
4.80500	77.063	-0.967899
4.80667	77.079	-0.967972
4.80833	77.095	-0.968040
4.81000	77.112	-0.968103
4.81167	77.129	-0.968152
4.81333	77.145	-0.968190
4.81500	77.162	-0.968235
4.81667	77.179	-0.968290
4.81833	77.195	-0.968349
4.82000	77.211	-0.968409
4.82167	77.228	-0.968485
4.82333	77.244	-0.968561
4.82500	77.261	-0.968640
4.82667	77.278	-0.968711
4.82833	77.296	-0.968769
4.83000	77.312	-0.968801
4.83167	77.328	-0.968830
4.83333	77.344	-0.968841
4.83500	77.362	-0.968845
4.83667	77.379	-0.968860
4.83833	77.396	-0.968886
4.84000	77.413	-0.968940
4.84167	77.430	-0.968992
4.84333	77.446	-0.969042
4.84500	77.462	-0.969098
4.84667	77.478	-0.969156
4.84833	77.495	-0.969206
4.85000	77.512	-0.969252
4.85167	77.528	-0.969294
4.85333	77.545	-0.969330
4.85500	77.562	-0.969342
4.85667	77.579	-0.969338
4.85833	77.596	-0.969340
4.86000	77.613	-0.969355
4.86167	77.630	-0.969363
4.86333	77.645	-0.969385
4.86500	77.663	-0.969412
4.86667	77.680	-0.969457
4.86833	77.696	-0.969530
4.87000	77.713	-0.969648
4.87167	77.729	-0.969865
4.87333	77.746	-0.970054
4.87500	77.762	-0.970156
4.87667	77.779	-0.970294
4.87833	77.796	-0.970401
4.88000	77.812	-0.970562
4.88167	77.829	-0.970657
4.88333	77.845	-0.970716
4.88500	77.862	-0.970761
4.88667	77.879	-0.970802
4.88833	77.896	-0.970821
4.89000	77.912	-0.970832
4.89167	77.928	-0.970844
4.89333	77.945	-0.970854
4.89500	77.963	-0.970874
4.89667	77.979	-0.970914
4.89833	77.996	-0.970985
4.90000	78.013	-0.971057
4.90167	78.030	-0.971128
4.90333	78.046	-0.971197
4.90500	78.063	-0.971272
4.90667	78.080	-0.971346
4.90833	78.096	-0.971463
4.91000	78.113	-0.971569
4.91167	78.130	-0.971676
4.91333	78.146	-0.971770
4.91500	78.162	-0.971868
4.91667	78.179	-0.971962
4.91833	78.196	-0.972034
4.92000	78.213	-0.972095
4.92167	78.229	-0.972133
4.92333	78.245	-0.972147
4.92500	78.262	-0.972146
4.92667	78.279	-0.972147
4.92833	78.296	-0.972157
4.93000	78.313	-0.972172
4.93167	78.329	-0.972190
4.93333	78.346	-0.972229
4.93500	78.363	-0.972274
4.93667	78.380	-0.972336
4.93833	78.396	-0.972414
4.94000	78.412	-0.972511
4.94167	78.429	-0.972599
4.94333	78.446	-0.972677
4.94500	78.463	-0.972730
4.94667	78.479	-0.972778
4.94833	78.497	-0.972824
4.95000	78.513	-0.972871
4.95167	78.530	-0.972913
4.95333	78.546	-0.972948
4.95500	78.563	-0.972974
4.95667	78.580	-0.973003
4.95833	78.596	-0.973067
4.96000	78.613	-0.973136
4.96167	78.630	-0.973216
4.96333	78.647	-0.973303
4.96500	78.663	-0.973384
4.96667	78.681	-0.973468
4.96833	78.697	-0.973567
4.97000	78.714	-0.973658
4.97167	78.730	-0.973741
4.97333	78.747	-0.973811
4.97500	78.763	-0.973860
4.97667	78.780	-0.973908
4.97833	78.795	-0.973939
4.98000	78.813	-0.973967
4.98167	78.829	-0.974005
4.98333	78.846	-0.974041
4.98500	78.864	-0.974083
4.98667	78.881	-0.974152
4.98833	78.898	-0.974248
4.99000	78.915	-0.974344
4.99167	78.932	-0.974430
4.99333	78.948	-0.974488
4.99500	78.965	-0.974534
4.99667	78.981	-0.974574
4.99833	78.997	-0.974605
5.00000	79.014	-0.974633
5.00167	79.031	-0.974677
5.00333	79.048	-0.974714
5.00500	79.065	-0.974779
5.00667	79.081	-0.974849
5.00833	79.098	-0.974936
5.01000	79.114	-0.975026
5.01167	79.131	-0.975113
5.01333	79.148	-0.975179
5.01500	79.164	-0.975237
5.01667	79.181	-0.975289
5.01833	79.198	-0.975339
5.02000	79.215	-0.975391
5.02167	79.231	-0.975445
5.02333	79.248	-0.975496
5.02500	79.264	-0.975540
5.02667	79.281	-0.975564
5.02833	79.298	-0.975576
5.03000	79.314	-0.975598
5.03167	79.331	-0.975633
5.03333	79.348	-0.975672
5.03500	79.365	-0.975717
5.03667	79.381	-0.975765
5.03833	79.398	-0.975822
5.04000	79.414	-0.975890
5.04167	79.431	-0.975970
5.04333	79.447	-0.976044
5.04500	79.465	-0.976129
5.04667	79.481	-0.976210
5.04833	79.498	-0.976291
5.05000	79.515	-0.976358
5.05167	79.531	-0.976424
5.05333	79.548	-0.976470
5.05500	79.565	-0.976492
5.05667	79.582	-0.976494
5.05833	79.599	-0.976500
5.06000	79.616	-0.976494
5.06167	79.632	-0.976480
5.06333	79.649	-0.976519
5.06500	79.665	-0.976586
5.06667	79.682	-0.976673
5.06833	79.698	-0.976775
5.07000	79.713	-0.976874
5.07167	79.731	-0.976967
5.07333	79.749	-0.977042
5.07500	79.765	-0.977099
5.07667	79.781	-0.977146
5.07833	79.797	-0.977168
5.08000	79.814	-0.977165
5.08167	79.832	-0.977155
5.08333	79.848	-0.977156
5.08500	79.865	-0.977188
5.08667	79.882	-0.977230
5.08833	79.898	-0.977284
5.09000	79.916	-0.977326
5.09167	79.932	-0.977381
5.09333	79.948	-0.977425
5.09500	79.965	-0.977482
5.09667	79.981	-0.977534
5.09833	79.998	-0.977593
5.10000	80.016	-0.977644
5.10167	80.031	-0.977700
5.10333	80.049	-0.977748
5.10500	80.065	-0.977817
5.10667	80.082	-0.977888
5.10833	80.099	-0.977949
5.11000	80.115	-0.978010
5.11167	80.132	-0.978060
5.11333	80.148	-0.978114
5.11500	80.165	-0.978148
5.11667	80.183	-0.978175
5.11833	80.199	-0.978208
5.12000	80.215	-0.978229
5.12167	80.231	-0.978250
5.12333	80.249	-0.978295
5.12500	80.265	-0.978337
5.12667	80.282	-0.978388
5.12833	80.299	-0.978442
5.13000	80.315	-0.978509
5.13167	80.332	-0.978567
5.13333	80.349	-0.978630
5.13500	80.365	-0.978697
5.13667	80.382	-0.978748
5.13833	80.399	-0.978782
5.14000	80.416	-0.978826
5.14167	80.432	-0.978893
5.14333	80.449	-0.978964
5.14500	80.466	-0.979015
5.14667	80.482	-0.979067
5.14833	80.499	-0.979132
5.15000	80.515	-0.979201
5.15167	80.532	-0.979288
5.15333	80.550	-0.979380
5.15500	80.566	-0.979457
5.15667	80.583	-0.979525
5.15833	80.599	-0.979580
5.16000	80.616	-0.979629
5.16167	80.633	-0.979673
5.16333	80.649	-0.979710
5.16500	80.666	-0.979726
5.16667	80.682	-0.979729
5.16833	80.698	-0.979737
5.17000	80.716	-0.979749
5.17167	80.732	-0.979766
5.17333	80.749	-0.979788
5.17500	80.766	-0.979809
5.17667	80.783	-0.979809
5.17833	80.799	-0.979821
5.18000	80.816	-0.979848
5.18167	80.832	-0.979890
5.18333	80.849	-0.979929
5.18500	80.865	-0.979986
5.18667	80.883	-0.980045
5.18833	80.899	-0.980116
5.19000	80.915	-0.980197
5.19167	80.933	-0.980276
5.19333	80.948	-0.980365
5.19500	80.966	-0.980460
5.19667	80.982	-0.980552
5.19833	80.999	-0.980634
5.20000	81.016	-0.980698
5.20167	81.032	-0.980759
5.20333	81.049	-0.980838
5.20500	81.066	-0.980895
5.20667	81.082	-0.980966
5.20833	81.098	-0.981048
5.21000	81.116	-0.981125
5.21167	81.133	-0.981211
5.21333	81.149	-0.981290
5.21500	81.166	-0.981347
5.21667	81.183	-0.981366
5.21833	81.200	-0.981368
5.22000	81.216	-0.981386
5.22167	81.233	-0.981414
5.22333	81.250	-0.981431
5.22500	81.266	-0.981452
5.22667	81.282	-0.981474
5.22833	81.300	-0.981508
5.23000	81.316	-0.981551
5.23167	81.333	-0.981585
5.23333	81.350	-0.981601
5.23500	81.366	-0.981588
5.23667	81.383	-0.981584
5.23833	81.399	-0.981623
5.24000	81.415	-0.981677
5.24167	81.432	-0.981746
5.24333	81.449	-0.981824
5.24500	81.466	-0.981910
5.24667	81.484	-0.981990
5.24833	81.499	-0.982061
5.25000	81.516	-0.982137
5.25167	81.533	-0.982203
5.25333	81.550	-0.982238
5.25500	81.567	-0.982272
5.25667	81.582	-0.982319
5.25833	81.600	-0.982370
5.26000	81.617	-0.982409
5.26167	81.633	-0.982446
5.26333	81.649	-0.982499
5.26500	81.667	-0.982549
5.26667	81.683	-0.982572
5.26833	81.700	-0.982618
5.27000	81.716	-0.982668
5.27167	81.733	-0.982696
5.27333	81.750	-0.982735
5.27500	81.767	-0.982764
5.27667	81.783	-0.982802
5.27833	81.799	-0.982833
5.28000	81.816	-0.982874
5.28167	81.833	-0.982925
5.28333	81.849	-0.982970
5.28500	81.867	-0.983008
5.28667	81.883	-0.983078
5.28833	81.900	-0.983151
5.29000	81.915	-0.983226
5.29167	81.933	-0.983321
5.29333	81.949	-0.983402
5.29500	81.967	-0.983482
5.29667	81.983	-0.983534
5.29833	82.000	-0.983593
5.30000	82.017	-0.983663
5.30167	82.033	-0.983742
5.30333	82.050	-0.983813
5.30500	82.066	-0.983901
5.30667	82.083	-0.984003
5.30833	82.100	-0.984116
5.31000	82.116	-0.984225
5.31167	82.133	-0.984328
5.31333	82.150	-0.984421
5.31500	82.166	-0.984473
5.31667	82.183	-0.984526
5.31833	82.199	-0.984593
5.32000	82.216	-0.984657
5.32167	82.233	-0.984713
5.32333	82.250	-0.984755
5.32500	82.266	-0.984792
5.32667	82.283	-0.984822
5.32833	82.300	-0.984837
5.33000	82.317	-0.984847
5.33167	82.334	-0.984878
5.33333	82.350	-0.984906
5.33500	82.367	-0.984950
5.33667	82.384	-0.985004
5.33833	82.400	-0.985078
5.34000	82.417	-0.985176
5.34167	82.434	-0.985270
5.34333	82.450	-0.985359
5.34500	82.467	-0.985457
5.34667	82.483	-0.985547
5.34833	82.500	-0.985607
5.35000	82.516	-0.985669
5.35167	82.533	-0.985736
5.35333	82.551	-0.985793
5.35500	82.568	-0.985854
5.35667	82.585	-0.985919
5.35833	82.601	-0.985997
5.36000	82.617	-0.986060
5.36167	82.634	-0.986133
5.36333	82.651	-0.986223
5.36500	82.667	-0.986314
5.36667	82.683	-0.986392
5.36833	82.701	-0.986462
5.37000	82.717	-0.986527
5.37167	82.735	-0.986567
5.37333	82.751	-0.986596
5.37500	82.768	-0.986632
5.37667	82.783	-0.986668
5.37833	82.801	-0.986701
5.38000	82.818	-0.986743
5.38167	82.834	-0.986812
5.38333	82.851	-0.986886
5.38500	82.867	-0.986964
5.38667	82.885	-0.987050
5.38833	82.901	-0.987144
5.39000	82.918	-0.987214
5.39167	82.935	-0.987268
5.39333	82.953	-0.987315
5.39500	82.968	-0.987370
5.39667	82.985	-0.987423
5.39833	83.001	-0.987485
5.40000	83.018	-0.987547
5.40167	83.035	-0.987609
5.40333	83.053	-0.987671
5.40500	83.067	-0.987748
5.40667	83.085	-0.987833
5.40833	83.102	-0.987922
5.41000	83.118	-0.987979
5.41167	83.134	-0.988028
5.41333	83.152	-0.988095
5.41500	83.168	-0.988154
5.41667	83.184	-0.988207
5.41833	83.202	-0.988252
5.42000	83.218	-0.988289
5.42167	83.236	-0.988316
5.42333	83.251	-0.988345
5.42500	83.268	-0.988355
5.42667	83.284	-0.988371
5.42833	83.301	-0.988408
5.43000	83.318	-0.988442
5.43167	83.334	-0.988504
5.43333	83.351	-0.988598
5.43500	83.369	-0.988701
5.43667	83.385	-0.988799
5.43833	83.400	-0.988869
5.44000	83.418	-0.988916
5.44167	83.435	-0.988935
5.44333	83.451	-0.988912
5.44500	83.468	-0.988853
5.44667	83.485	-0.988828
5.44833	83.502	-0.988815
5.45000	83.518	-0.988817
5.45167	83.535	-0.988849
5.45333	83.552	-0.988902
5.45500	83.568	-0.988987
5.45667	83.585	-0.989165
5.45833	83.602	-0.989438
5.46000	83.618	-0.989553
5.46167	83.635	-0.989640
5.46333	83.652	-0.989708
5.46500	83.669	-0.989769
5.46667	83.685	-0.989820
5.46833	83.703	-0.989853
5.47000	83.719	-0.989872
5.47167	83.735	-0.989879
5.47333	83.753	-0.989893
5.47500	83.769	-0.989909
5.47667	83.785	-0.989943
5.47833	83.802	-0.989988
5.48000	83.819	-0.990016
5.48167	83.836	-0.990037
5.48333	83.852	-0.990074
5.48500	83.869	-0.990114
5.48667	83.885	-0.990160
5.48833	83.902	-0.990204
5.49000	83.919	-0.990257
5.49167	83.935	-0.990323
5.49333	83.952	-0.990375
5.49500	83.969	-0.990431
5.49667	83.986	-0.990511
5.49833	84.003	-0.990591
5.50000	84.018	-0.990652
5.50167	84.036	-0.990698
5.50333	84.053	-0.990711
5.50500	84.069	-0.990723
5.50667	84.085	-0.990737
5.50833	84.103	-0.990766
5.51000	84.118	-0.990810
5.51167	84.135	-0.990871
5.51333	84.152	-0.990945
5.51500	84.169	-0.991042
5.51667	84.186	-0.991136
5.51833	84.203	-0.991231
5.52000	84.220	-0.991307
5.52167	84.237	-0.991356
5.52333	84.253	-0.991386
5.52500	84.270	-0.991403
5.52667	84.286	-0.991428
5.52833	84.303	-0.991434
5.53000	84.320	-0.991445
5.53167	84.336	-0.991477
5.53333	84.353	-0.991523
5.53500	84.370	-0.991591
5.53667	84.386	-0.991647
5.53833	84.403	-0.991703
5.54000	84.420	-0.991742
5.54167	84.437	-0.991780
5.54333	84.453	-0.991814
5.54500	84.470	-0.991851
5.54667	84.487	-0.991865
5.54833	84.504	-0.991875
5.55000	84.520	-0.991889
5.55167	84.537	-0.991893
5.55333	84.554	-0.991915
5.55500	84.570	-0.991956
5.55667	84.587	-0.992021
5.55833	84.604	-0.992080
5.56000	84.621	-0.992137
5.56167	84.637	-0.992188
5.56333	84.653	-0.992226
5.56500	84.670	-0.992261
5.56667	84.687	-0.992303
5.56833	84.704	-0.992337
5.57000	84.720	-0.992361
5.57167	84.738	-0.992396
5.57333	84.753	-0.992449
5.57500	84.771	-0.992507
5.57667	84.787	-0.992561
5.57833	84.804	-0.992609
5.58000	84.821	-0.992659
5.58167	84.837	-0.992686
5.58333	84.854	-0.992719
5.58500	84.870	-0.992758
5.58667	84.888	-0.992768
5.58833	84.904	-0.992779
5.59000	84.921	-0.992783
5.59167	84.937	-0.992819
5.59333	84.954	-0.992883
5.59500	84.971	-0.992955
5.59667	84.987	-0.993029
5.59833	85.003	-0.993103
5.60000	85.021	-0.993152
5.60167	85.038	-0.993206
5.60333	85.053	-0.993251
5.60500	85.072	-0.993293
5.60667	85.088	-0.993327
5.60833	85.105	-0.993332
5.61000	85.121	-0.993333
5.61167	85.138	-0.993343
5.61333	85.155	-0.993357
5.61500	85.170	-0.993357
5.61667	85.187	-0.993359
5.61833	85.204	-0.993360
5.62000	85.221	-0.993372
5.62167	85.237	-0.993378
5.62333	85.254	-0.993385
5.62500	85.271	-0.993412
5.62667	85.288	-0.993452
5.62833	85.304	-0.993497
5.63000	85.321	-0.993548
5.63167	85.337	-0.993612
5.63333	85.353	-0.993678
5.63500	85.371	-0.993727
5.63667	85.387	-0.993766
5.63833	85.404	-0.993801
5.64000	85.420	-0.993825
5.64167	85.438	-0.993850
5.64333	85.454	-0.993876
5.64500	85.471	-0.993917
5.64667	85.487	-0.993956
5.64833	85.504	-0.994005
5.65000	85.521	-0.994060
5.65167	85.537	-0.994104
5.65333	85.554	-0.994138
5.65500	85.571	-0.994167
5.65667	85.587	-0.994180
5.65833	85.604	-0.994209
5.66000	85.620	-0.994241
5.66167	85.638	-0.994300
5.66333	85.654	-0.994365
5.66500	85.670	-0.994443
5.66667	85.688	-0.994529
5.66833	85.704	-0.994608
5.67000	85.721	-0.994677
5.67167	85.738	-0.994740
5.67333	85.754	-0.994798
5.67500	85.771	-0.994842
5.67667	85.788	-0.994891
5.67833	85.804	-0.994934
5.68000	85.822	-0.994999
5.68167	85.839	-0.995054
5.68333	85.854	-0.995118
5.68500	85.871	-0.995159
5.68667	85.887	-0.995189
5.68833	85.905	-0.995191
5.69000	85.921	-0.995222
5.69167	85.937	-0.995246
5.69333	85.954	-0.995271
5.69500	85.971	-0.995304
5.69667	85.987	-0.995349
5.69833	86.004	-0.995433
5.70000	86.020	-0.995538
5.70167	86.037	-0.995673
5.70333	86.054	-0.995810
5.70500	86.071	-0.995906
5.70667	86.087	-0.995978
5.70833	86.103	-0.996045
5.71000	86.121	-0.996094
5.71167	86.138	-0.996128
5.71333	86.154	-0.996163
5.71500	86.171	-0.996197
5.71667	86.187	-0.996245
5.71833	86.204	-0.996305
5.72000	86.221	-0.996385
5.72167	86.237	-0.996464
5.72333	86.255	-0.996559
5.72500	86.272	-0.996651
5.72667	86.288	-0.996722
5.72833	86.305	-0.996789
5.73000	86.322	-0.996846
5.73167	86.338	-0.996887
5.73333	86.353	-0.996905
5.73500	86.371	-0.996942
5.73667	86.388	-0.996974
5.73833	86.404	-0.997003
5.74000	86.421	-0.997042
5.74167	86.438	-0.997091
5.74333	86.455	-0.997146
5.74500	86.471	-0.997178
5.74667	86.488	-0.997198
5.74833	86.505	-0.997234
5.75000	86.522	-0.997278
5.75167	86.538	-0.997321
5.75333	86.555	-0.997395
5.75500	86.571	-0.997470
5.75667	86.587	-0.997550
5.75833	86.605	-0.997630
5.76000	86.622	-0.997725
5.76167	86.639	-0.997827
5.76333	86.656	-0.997909
5.76500	86.673	-0.997985
5.76667	86.689	-0.998062
5.76833	86.706	-0.998132
5.77000	86.722	-0.998172
5.77167	86.738	-0.998197
5.77333	86.755	-0.998218
5.77500	86.772	-0.998249
5.77667	86.789	-0.998275
5.77833	86.805	-0.998303
5.78000	86.822	-0.998322
5.78167	86.839	-0.998342
5.78333	86.855	-0.998383
5.78500	86.872	-0.998425
5.78667	86.889	-0.998472
5.78833	86.905	-0.998514
5.79000	86.922	-0.998558
5.79167	86.938	-0.998630
5.79333	86.955	-0.998694
5.79500	86.972	-0.998747
5.79667	86.989	-0.998775
5.79833	87.005	-0.998780
5.80000	87.023	-0.998747
5.80167	87.039	-0.998737
5.80333	87.056	-0.998739
5.80500	87.073	-0.998743
5.80667	87.088	-0.998747
5.80833	87.105	-0.998751
5.81000	87.123	-0.998771
5.81167	87.139	-0.998792
5.81333	87.155	-0.998817
5.81500	87.172	-0.998846
5.81667	87.188	-0.998892
5.81833	87.205	-0.998923
5.82000	87.222	-0.998989
5.82167	87.239	-0.999110
5.82333	87.255	-0.999237
5.82500	87.272	-0.999327
5.82667	87.289	-0.999410
5.82833	87.306	-0.999495
5.83000	87.322	-0.999562
5.83167	87.338	-0.999609
5.83333	87.356	-0.999653
5.83500	87.372	-0.999681
5.83667	87.389	-0.999681
5.83833	87.405	-0.999673
5.84000	87.422	-0.999682
5.84167	87.438	-0.999697
5.84333	87.456	-0.999700
5.84500	87.471	-0.999698
5.84667	87.489	-0.999723
5.84833	87.506	-0.999747
5.85000	87.523	-0.999786
5.85167	87.540	-0.999839
5.85333	87.555	-0.999915
5.85500	87.572	-0.999991
5.85667	87.589	-1.00004
5.85833	87.606	-1.00006
5.86000	87.622	-1.00007
5.86167	87.638	-1.00009
5.86333	87.656	-1.00011
5.86500	87.672	-1.00013
5.86667	87.688	-1.00017
5.86833	87.705	-1.00022
5.87000	87.722	-1.00027
5.87167	87.739	-1.00034
5.87333	87.755	-1.00041
5.87500	87.771	-1.00049
5.87667	87.789	-1.00055
5.87833	87.805	-1.00058
5.88000	87.821	-1.00061
5.88167	87.838	-1.00063
5.88333	87.855	-1.00066
5.88500	87.871	-1.00070
5.88667	87.888	-1.00076
5.88833	87.905	-1.00082
5.89000	87.921	-1.00088
5.89167	87.938	-1.00095
5.89333	87.955	-1.00102
5.89500	87.972	-1.00107
5.89667	87.989	-1.00111
5.89833	88.005	-1.00114
5.90000	88.022	-1.00116
5.90167	88.038	-1.00119
5.90333	88.055	-1.00122
5.90500	88.072	-1.00126
5.90667	88.088	-1.00130
5.90833	88.105	-1.00136
5.91000	88.121	-1.00142
5.91167	88.138	-1.00149
5.91333	88.155	-1.00156
5.91500	88.172	-1.00163
5.91667	88.188	-1.00173
5.91833	88.205	-1.00182
5.92000	88.222	-1.00189
5.92167	88.238	-1.00192
5.92333	88.255	-1.00194
5.92500	88.272	-1.00197
5.92667	88.289	-1.00201
5.92833	88.305	-1.00206
5.93000	88.322	-1.00211
5.93167	88.338	-1.00217
5.93333	88.355	-1.00224
5.93500	88.372	-1.00232
5.93667	88.389	-1.00248
5.93833	88.405	-1.00258
5.94000	88.423	-1.00266
5.94167	88.439	-1.00272
5.94333	88.455	-1.00278
5.94500	88.472	-1.00282
5.94667	88.488	-1.00284
5.94833	88.505	-1.00287
5.95000	88.521	-1.00292
5.95167	88.538	-1.00296
5.95333	88.555	-1.00299
5.95500	88.571	-1.00302
5.95667	88.588	-1.00306
5.95833	88.605	-1.00311
5.96000	88.622	-1.00317
5.96167	88.638	-1.00322
5.96333	88.656	-1.00327
5.96500	88.672	-1.00332
5.96667	88.689	-1.00337
5.96833	88.706	-1.00344
5.97000	88.723	-1.00349
5.97167	88.739	-1.00353
5.97333	88.756	-1.00356
5.97500	88.773	-1.00359
5.97667	88.789	-1.00359
5.97833	88.806	-1.00358
5.98000	88.823	-1.00359
5.98167	88.839	-1.00360
5.98333	88.856	-1.00364
5.98500	88.873	-1.00370
5.98667	88.889	-1.00379
5.98833	88.906	-1.00386
5.99000	88.922	-1.00393
5.99167	88.939	-1.00402
5.99333	88.956	-1.00414
5.99500	88.972	-1.00424
5.99667	88.988	-1.00432
5.99833	89.006	-1.00439
6.00000	89.023	-1.00444
6.00167	89.039	-1.00448
6.00333	89.055	-1.00452
6.00500	89.071	-1.00456
6.00667	89.088	-1.00458
6.00833	89.106	-1.00459
6.01000	89.122	-1.00460
6.01167	89.138	-1.00464
6.01333	89.156	-1.00468
6.01500	89.172	-1.00474
6.01667	89.189	-1.00481
6.01833	89.204	-1.00487
6.02000	89.221	-1.00494
6.02167	89.239	-1.00501
6.02333	89.256	-1.00508
6.02500	89.273	-1.00513
6.02667	89.289	-1.00516
6.02833	89.305	-1.00516
6.03000	89.322	-1.00516
6.03167	89.338	-1.00514
6.03333	89.356	-1.00512
6.03500	89.372	-1.00510
6.03667	89.389	-1.00510
6.03833	89.405	-1.00512
6.04000	89.422	-1.00515
6.04167	89.439	-1.00521
6.04333	89.455	-1.00528
6.04500	89.473	-1.00536
6.04667	89.490	-1.00543
6.04833	89.505	-1.00549
6.05000	89.522	-1.00554
6.05167	89.539	-1.00559
6.05333	89.556	-1.00560
6.05500	89.572	-1.00561
6.05667	89.589	-1.00563
6.05833	89.606	-1.00563
6.06000	89.623	-1.00563
6.06167	89.639	-1.00566
6.06333	89.656	-1.00567
6.06500	89.673	-1.00569
6.06667	89.689	-1.00569
6.06833	89.706	-1.00570
6.07000	89.723	-1.00570
6.07167	89.740	-1.00574
6.07333	89.755	-1.00578
6.07500	89.772	-1.00585
6.07667	89.788	-1.00589
6.07833	89.805	-1.00591
6.08000	89.823	-1.00595
6.08167	89.839	-1.00602
6.08333	89.856	-1.00616
6.08500	89.873	-1.00631
6.08667	89.889	-1.00639
6.08833	89.906	-1.00645
6.09000	89.923	-1.00654
6.09167	89.939	-1.00663
6.09333	89.956	-1.00673
6.09500	89.972	-1.00682
6.09667	89.988	-1.00687
6.09833	90.006	-1.00690
6.10000	90.022	-1.00693
6.10167	90.038	-1.00698
6.10333	90.056	-1.00702
6.10500	90.073	-1.00704
6.10667	90.089	-1.00702
6.10833	90.105	-1.00697
6.11000	90.122	-1.00692
6.11167	90.139	-1.00690
6.11333	90.155	-1.00691
6.11500	90.172	-1.00693
6.11667	90.190	-1.00696
6.11833	90.205	-1.00698
6.12000	90.223	-1.00702
6.12167	90.239	-1.00706
6.12333	90.256	-1.00709
6.12500	90.272	-1.00710
6.12667	90.289	-1.00709
6.12833	90.306	-1.00709
6.13000	90.323	-1.00711
6.13167	90.339	-1.00718
6.13333	90.355	-1.00724
6.13500	90.373	-1.00731
6.13667	90.390	-1.00738
6.13833	90.407	-1.00746
6.14000	90.424	-1.00751
6.14167	90.440	-1.00754
6.14333	90.456	-1.00755
6.14500	90.474	-1.00752
6.14667	90.489	-1.00750
6.14833	90.506	-1.00750
6.15000	90.523	-1.00752
6.15167	90.539	-1.00756
6.15333	90.556	-1.00762
6.15500	90.572	-1.00769
6.15667	90.589	-1.00780
6.15833	90.606	-1.00788
6.16000	90.622	-1.00794
6.16167	90.639	-1.00798
6.16333	90.656	-1.00802
6.16500	90.672	-1.00805
6.16667	90.690	-1.00809
6.16833	90.706	-1.00812
6.17000	90.723	-1.00815
6.17167	90.739	-1.00819
6.17333	90.757	-1.00823
6.17500	90.772	-1.00830
6.17667	90.789	-1.00837
6.17833	90.805	-1.00843
6.18000	90.822	-1.00849
6.18167	90.840	-1.00854
6.18333	90.855	-1.00857
6.18500	90.872	-1.00860
6.18667	90.888	-1.00862
6.18833	90.905	-1.00862
6.19000	90.922	-1.00859
6.19167	90.939	-1.00855
6.19333	90.956	-1.00851
6.19500	90.972	-1.00848
6.19667	90.990	-1.00847
6.19833	91.006	-1.00844
6.20000	91.023	-1.00842
6.20167	91.040	-1.00843
6.20333	91.055	-1.00846
6.20500	91.072	-1.00849
6.20667	91.089	-1.00856
6.20833	91.106	-1.00866
6.21000	91.123	-1.00878
6.21167	91.140	-1.00886
6.21333	91.156	-1.00894
6.21500	91.172	-1.00901
6.21667	91.190	-1.00908
6.21833	91.207	-1.00916
6.22000	91.223	-1.00928
6.22167	91.240	-1.00942
6.22333	91.257	-1.00953
6.22500	91.273	-1.00962
6.22667	91.289	-1.00971
6.22833	91.306	-1.00976
6.23000	91.322	-1.00983
6.23167	91.338	-1.00987
6.23333	91.356	-1.00989
6.23500	91.372	-1.00990
6.23667	91.388	-1.00992
6.23833	91.406	-1.00993
6.24000	91.423	-1.00994
6.24167	91.439	-1.00997
6.24333	91.456	-1.00999
6.24500	91.472	-1.01002
6.24667	91.490	-1.01003
6.24833	91.506	-1.01006
6.25000	91.523	-1.01008
6.25167	91.539	-1.01012
6.25333	91.556	-1.01018
6.25500	91.572	-1.01024
6.25667	91.589	-1.01029
6.25833	91.606	-1.01032
6.26000	91.622	-1.01036
6.26167	91.639	-1.01039
6.26333	91.656	-1.01045
6.26500	91.674	-1.01052
6.26667	91.689	-1.01057
6.26833	91.706	-1.01060
6.27000	91.723	-1.01062
6.27167	91.740	-1.01067
6.27333	91.757	-1.01072
6.27500	91.773	-1.01078
6.27667	91.789	-1.01085
6.27833	91.806	-1.01091
6.28000	91.823	-1.01096
6.28167	91.840	-1.01102
6.28333	91.856	-1.01110
6.28500	91.872	-1.01121
6.28667	91.889	-1.01129
6.28833	91.906	-1.01136
6.29000	91.923	-1.01142
6.29167	91.939	-1.01146
6.29333	91.957	-1.01150
6.29500	91.973	-1.01152
6.29667	91.990	-1.01155
6.29833	92.006	-1.01157
6.30000	92.023	-1.01157
6.30167	92.040	-1.01156
6.30333	92.056	-1.01158
6.30500	92.074	-1.01159
6.30667	92.090	-1.01161
6.30833	92.107	-1.01164
6.31000	92.124	-1.01167
6.31167	92.140	-1.01171
6.31333	92.157	-1.01175
6.31500	92.173	-1.01180
6.31667	92.190	-1.01185
6.31833	92.205	-1.01189
6.32000	92.223	-1.01192
6.32167	92.239	-1.01196
6.32333	92.256	-1.01200
6.32500	92.274	-1.01205
6.32667	92.290	-1.01210
6.32833	92.306	-1.01213
6.33000	92.324	-1.01217
6.33167	92.340	-1.01223
6.33333	92.357	-1.01232
6.33500	92.374	-1.01250
6.33667	92.390	-1.01259
6.33833	92.407	-1.01266
6.34000	92.423	-1.01272
6.34167	92.440	-1.01275
6.34333	92.457	-1.01279
6.34500	92.472	-1.01282
6.34667	92.490	-1.01282
6.34833	92.506	-1.01285
6.35000	92.522	-1.01289
6.35167	92.539	-1.01293
6.35333	92.557	-1.01298
6.35500	92.572	-1.01304
6.35667	92.589	-1.01311
6.35833	92.606	-1.01318
6.36000	92.623	-1.01322
6.36167	92.639	-1.01325
6.36333	92.657	-1.01329
6.36500	92.673	-1.01333
6.36667	92.690	-1.01340
6.36833	92.707	-1.01347
6.37000	92.723	-1.01354
6.37167	92.740	-1.01360
6.37333	92.755	-1.01366
6.37500	92.773	-1.01370
6.37667	92.790	-1.01374
6.37833	92.805	-1.01376
6.38000	92.824	-1.01377
6.38167	92.840	-1.01376
6.38333	92.856	-1.01375
6.38500	92.873	-1.01375
6.38667	92.889	-1.01375
6.38833	92.907	-1.01375
6.39000	92.922	-1.01377
6.39167	92.939	-1.01380
6.39333	92.955	-1.01383
6.39500	92.973	-1.01386
6.39667	92.990	-1.01392
6.39833	93.006	-1.01398
6.40000	93.024	-1.01404
6.40167	93.040	-1.01413
6.40333	93.058	-1.01422
6.40500	93.073	-1.01430
6.40667	93.090	-1.01438
6.40833	93.107	-1.01446
6.41000	93.123	-1.01454
6.41167	93.140	-1.01461
6.41333	93.156	-1.01467
6.41500	93.174	-1.01473
6.41667	93.190	-1.01476
6.41833	93.206	-1.01477
6.42000	93.222	-1.01478
6.42167	93.240	-1.01478
6.42333	93.256	-1.01481
6.42500	93.274	-1.01485
6.42667	93.290	-1.01491
6.42833	93.307	-1.01497
6.43000	93.323	-1.01500
6.43167	93.340	-1.01505
6.43333	93.356	-1.01509
6.43500	93.373	-1.01511
6.43667	93.390	-1.01512
6.43833	93.406	-1.01514
6.44000	93.424	-1.01517
6.44167	93.441	-1.01521
6.44333	93.458	-1.01527
6.44500	93.474	-1.01534
6.44667	93.490	-1.01539
6.44833	93.506	-1.01545
6.45000	93.523	-1.01552
6.45167	93.540	-1.01557
6.45333	93.556	-1.01562
6.45500	93.573	-1.01566
6.45667	93.591	-1.01569
6.45833	93.607	-1.01572
6.46000	93.623	-1.01575
6.46167	93.640	-1.01578
6.46333	93.656	-1.01581
6.46500	93.673	-1.01583
6.46667	93.690	-1.01588
6.46833	93.706	-1.01594
6.47000	93.724	-1.01599
6.47167	93.739	-1.01603
6.47333	93.756	-1.01609
6.47500	93.774	-1.01614
6.47667	93.790	-1.01618
6.47833	93.807	-1.01622
6.48000	93.823	-1.01627
6.48167	93.839	-1.01631
6.48333	93.857	-1.01634
6.48500	93.874	-1.01639
6.48667	93.891	-1.01644
6.48833	93.907	-1.01649
6.49000	93.923	-1.01656
6.49167	93.940	-1.01664
6.49333	93.956	-1.01669
6.49500	93.974	-1.01673
6.49667	93.990	-1.01677
6.49833	94.007	-1.01682
6.50000	94.023	-1.01684
6.50167	94.040	-1.01688
6.50333	94.056	-1.01693
6.50500	94.074	-1.01698
6.50667	94.090	-1.01706
6.50833	94.106	-1.01729
6.51000	94.123	-1.01743
6.51167	94.140	-1.01753
6.51333	94.157	-1.01762
6.51500	94.174	-1.01771
6.51667	94.190	-1.01777
6.51833	94.207	-1.01779
6.52000	94.224	-1.01779
6.52167	94.240	-1.01780
6.52333	94.256	-1.01782
6.52500	94.274	-1.01787
6.52667	94.291	-1.01794
6.52833	94.307	-1.01803
6.53000	94.324	-1.01817
6.53167	94.341	-1.01844
6.53333	94.357	-1.01873
6.53500	94.374	-1.01886
6.53667	94.391	-1.01893
6.53833	94.407	-1.01899
6.54000	94.423	-1.01903
6.54167	94.441	-1.01908
6.54333	94.457	-1.01910
6.54500	94.473	-1.01912
6.54667	94.490	-1.01914
6.54833	94.508	-1.01915
6.55000	94.525	-1.01917
6.55167	94.540	-1.01919
6.55333	94.558	-1.01921
6.55500	94.574	-1.01922
6.55667	94.591	-1.01927
6.55833	94.608	-1.01932
6.56000	94.623	-1.01936
6.56167	94.641	-1.01944
6.56333	94.658	-1.01952
6.56500	94.674	-1.01962
6.56667	94.691	-1.01972
6.56833	94.707	-1.01981
6.57000	94.725	-1.01989
6.57167	94.742	-1.01993
6.57333	94.758	-1.01996
6.57500	94.775	-1.02000
6.57667	94.791	-1.02002
6.57833	94.808	-1.02005
6.58000	94.824	-1.02005
6.58167	94.842	-1.02005
6.58333	94.859	-1.02005
6.58500	94.875	-1.02006
6.58667	94.891	-1.02009
6.58833	94.908	-1.02014
6.59000	94.925	-1.02017
6.59167	94.942	-1.02018
6.59333	94.957	-1.02020
6.59500	94.975	-1.02022
6.59667	94.992	-1.02025
6.59833	95.008	-1.02026
6.60000	95.025	-1.02028
6.60167	95.041	-1.02032
6.60333	95.058	-1.02035
6.60500	95.075	-1.02041
6.60667	95.091	-1.02051
6.60833	95.109	-1.02060
6.61000	95.125	-1.02067
6.61167	95.141	-1.02075
6.61333	95.158	-1.02082
6.61500	95.175	-1.02088
6.61667	95.192	-1.02092
6.61833	95.209	-1.02094
6.62000	95.224	-1.02095
6.62167	95.242	-1.02094
6.62333	95.258	-1.02093
6.62500	95.275	-1.02092
6.62667	95.291	-1.02089
6.62833	95.308	-1.02087
6.63000	95.325	-1.02086
6.63167	95.342	-1.02088
6.63333	95.359	-1.02093
6.63500	95.375	-1.02099
6.63667	95.391	-1.02111
6.63833	95.408	-1.02122
6.64000	95.425	-1.02130
6.64167	95.442	-1.02140
6.64333	95.459	-1.02148
6.64500	95.475	-1.02154
6.64667	95.492	-1.02161
6.64833	95.508	-1.02165
6.65000	95.526	-1.02170
6.65167	95.541	-1.02174
6.65333	95.558	-1.02177
6.65500	95.576	-1.02180
6.65667	95.591	-1.02184
6.65833	95.609	-1.02188
6.66000	95.625	-1.02191
6.66167	95.642	-1.02193
6.66333	95.658	-1.02196
6.66500	95.675	-1.02198
6.66667	95.693	-1.02199
6.66833	95.708	-1.02203
6.67000	95.725	-1.02210
6.67167	95.741	-1.02216
6.67333	95.758	-1.02221
6.67500	95.775	-1.02228
6.67667	95.792	-1.02236
6.67833	95.809	-1.02244
6.68000	95.825	-1.02251
6.68167	95.842	-1.02258
6.68333	95.859	-1.02263
6.68500	95.874	-1.02268
6.68667	95.892	-1.02275
6.68833	95.909	-1.02287
6.69000	95.926	-1.02294
6.69167	95.942	-1.02300
6.69333	95.959	-1.02304
6.69500	95.975	-1.02307
6.69667	95.992	-1.02308
6.69833	96.008	-1.02310
6.70000	96.025	-1.02312
6.70167	96.041	-1.02314
6.70333	96.058	-1.02314
6.70500	96.074	-1.02318
6.70667	96.091	-1.02325
6.70833	96.109	-1.02333
6.71000	96.126	-1.02343
6.71167	96.142	-1.02352
6.71333	96.159	-1.02362
6.71500	96.175	-1.02372
6.71667	96.192	-1.02383
6.71833	96.209	-1.02393
6.72000	96.225	-1.02401
6.72167	96.242	-1.02406
6.72333	96.259	-1.02409
6.72500	96.276	-1.02411
6.72667	96.292	-1.02411
6.72833	96.308	-1.02411
6.73000	96.324	-1.02411
6.73167	96.342	-1.02410
6.73333	96.358	-1.02410
6.73500	96.375	-1.02413
6.73667	96.391	-1.02418
6.73833	96.408	-1.02426
6.74000	96.424	-1.02433
6.74167	96.441	-1.02440
6.74333	96.458	-1.02444
6.74500	96.475	-1.02448
6.74667	96.491	-1.02449
6.74833	96.509	-1.02452
6.75000	96.525	-1.02455
6.75167	96.542	-1.02456
6.75333	96.558	-1.02458
6.75500	96.575	-1.02460
6.75667	96.592	-1.02464
6.75833	96.608	-1.02466
6.76000	96.625	-1.02468
6.76167	96.641	-1.02470
6.76333	96.657	-1.02472
6.76500	96.674	-1.02474
6.76667	96.691	-1.02480
6.76833	96.708	-1.02487
6.77000	96.725	-1.02495
6.77167	96.742	-1.02504
6.77333	96.758	-1.02513
6.77500	96.776	-1.02521
6.77667	96.791	-1.02530
6.77833	96.808	-1.02537
6.78000	96.825	-1.02543
6.78167	96.841	-1.02549
6.78333	96.858	-1.02553
6.78500	96.875	-1.02557
6.78667	96.892	-1.02562
6.78833	96.907	-1.02568
6.79000	96.925	-1.02572
6.79167	96.941	-1.02577
6.79333	96.958	-1.02581
6.79500	96.975	-1.02586
6.79667	96.992	-1.02593
6.79833	97.008	-1.02600
6.80000	97.025	-1.02608
6.80167	97.042	-1.02617
6.80333	97.059	-1.02624
6.80500	97.075	-1.02629
6.80667	97.092	-1.02634
6.80833	97.109	-1.02641
6.81000	97.126	-1.02647
6.81167	97.141	-1.02653
6.81333	97.158	-1.02658
6.81500	97.174	-1.02663
6.81667	97.192	-1.02670
6.81833	97.207	-1.02677
6.82000	97.225	-1.02683
6.82167	97.241	-1.02690
6.82333	97.258	-1.02697
6.82500	97.275	-1.02704
6.82667	97.291	-1.02712
6.82833	97.308	-1.02721
6.83000	97.325	-1.02729
6.83167	97.342	-1.02737
6.83333	97.359	-1.02745
6.83500	97.375	-1.02753
6.83667	97.392	-1.02760
6.83833	97.408	-1.02767
6.84000	97.424	-1.02772
6.84167	97.442	-1.02776
6.84333	97.457	-1.02779
6.84500	97.474	-1.02783
6.84667	97.491	-1.02785
6.84833	97.507	-1.02788
6.85000	97.524	-1.02793
6.85167	97.541	-1.02799
6.85333	97.558	-1.02805
6.85500	97.575	-1.02811
6.85667	97.592	-1.02817
6.85833	97.609	-1.02821
6.86000	97.625	-1.02824
6.86167	97.641	-1.02828
6.86333	97.658	-1.02831
6.86500	97.675	-1.02837
6.86667	97.690	-1.02842
6.86833	97.709	-1.02848
6.87000	97.724	-1.02857
6.87167	97.741	-1.02876
6.87333	97.758	-1.02895
6.87500	97.775	-1.02905
6.87667	97.791	-1.02914
6.87833	97.808	-1.02923
6.88000	97.825	-1.02932
6.88167	97.841	-1.02940
6.88333	97.857	-1.02949
6.88500	97.873	-1.02958
6.88667	97.891	-1.02966
6.88833	97.908	-1.02973
6.89000	97.925	-1.02979
6.89167	97.941	-1.02985
6.89333	97.958	-1.02990
6.89500	97.974	-1.02992
6.89667	97.992	-1.02994
6.89833	98.008	-1.02997
6.90000	98.025	-1.03001
6.90167	98.042	-1.03004
6.90333	98.058	-1.03008
6.90500	98.075	-1.03012
6.90667	98.092	-1.03017
6.90833	98.109	-1.03022
6.91000	98.124	-1.03028
6.91167	98.142	-1.03033
6.91333	98.159	-1.03038
6.91500	98.176	-1.03042
6.91667	98.192	-1.03046
6.91833	98.208	-1.03051
6.92000	98.226	-1.03055
6.92167	98.241	-1.03060
6.92333	98.259	-1.03065
6.92500	98.276	-1.03070
6.92667	98.292	-1.03076
6.92833	98.308	-1.03082
6.93000	98.324	-1.03089
6.93167	98.342	-1.03097
6.93333	98.359	-1.03104
6.93500	98.376	-1.03110
6.93667	98.392	-1.03114
6.93833	98.409	-1.03118
6.94000	98.427	-1.03122
6.94167	98.442	-1.03124
6.94333	98.459	-1.03126
6.94500	98.476	-1.03129
6.94667	98.492	-1.03132
6.94833	98.509	-1.03137
6.95000	98.526	-1.03145
6.95167	98.542	-1.03155
6.95333	98.559	-1.03167
6.95500	98.575	-1.03177
6.95667	98.593	-1.03186
6.95833	98.608	-1.03196
6.96000	98.625	-1.03204
6.96167	98.643	-1.03210
6.96333	98.659	-1.03215
6.96500	98.675	-1.03215
6.96667	98.692	-1.03215
6.96833	98.708	-1.03215
6.97000	98.726	-1.03217
6.97167	98.743	-1.03220
6.97333	98.758	-1.03227
6.97500	98.775	-1.03234
6.97667	98.792	-1.03242
6.97833	98.809	-1.03250
6.98000	98.826	-1.03260
6.98167	98.843	-1.03267
6.98333	98.859	-1.03270
6.98500	98.876	-1.03270
6.98667	98.893	-1.03270
6.98833	98.909	-1.03268
6.99000	98.925	-1.03268
6.99167	98.943	-1.03270
6.99333	98.958	-1.03275
6.99500	98.976	-1.03282
6.99667	98.992	-1.03288
6.99833	99.008	-1.03297
7.00000	99.026	-1.03308
7.00167	99.042	-1.03318
7.00333	99.059	-1.03326
7.00500	99.076	-1.03334
7.00667	99.093	-1.03340
7.00833	99.108	-1.03344
7.01000	99.126	-1.03349
7.01167	99.142	-1.03356
7.01333	99.159	-1.03362
7.01500	99.174	-1.03368
7.01667	99.191	-1.03377
7.01833	99.208	-1.03386
7.02000	99.226	-1.03397
7.02167	99.242	-1.03406
7.02333	99.259	-1.03414
7.02500	99.276	-1.03421
7.02667	99.293	-1.03426
7.02833	99.309	-1.03430
7.03000	99.326	-1.03434
7.03167	99.343	-1.03437
7.03333	99.358	-1.03439
7.03500	99.375	-1.03443
7.03667	99.392	-1.03447
7.03833	99.409	-1.03453
7.04000	99.426	-1.03462
7.04167	99.442	-1.03472
7.04333	99.459	-1.03482
7.04500	99.475	-1.03490
7.04667	99.493	-1.03498
7.04833	99.509	-1.03506
7.05000	99.526	-1.03515
7.05167	99.543	-1.03522
7.05333	99.559	-1.03529
7.05500	99.576	-1.03536
7.05667	99.592	-1.03543
7.05833	99.609	-1.03553
7.06000	99.626	-1.03562
7.06167	99.642	-1.03569
7.06333	99.659	-1.03573
7.06500	99.676	-1.03576
7.06667	99.692	-1.03579
7.06833	99.710	-1.03582
7.07000	99.726	-1.03587
7.07167	99.743	-1.03592
7.07333	99.760	-1.03596
7.07500	99.776	-1.03603
7.07667	99.793	-1.03611
7.07833	99.810	-1.03619
7.08000	99.826	-1.03626
7.08167	99.843	-1.03632
7.08333	99.859	-1.03637
7.08500	99.877	-1.03640
7.08667	99.893	-1.03643
7.08833	99.909	-1.03647
7.09000	99.927	-1.03651
7.09167	99.943	-1.03654
7.09333	99.958	-1.03658
7.09500	99.976	-1.03662
7.09667	99.992	-1.03667
7.09833	100.009	-1.03672
7.10000	100.026	-1.03678
7.10167	100.042	-1.03683
7.10333	100.059	-1.03689
7.10500	100.075	-1.03695
7.10667	100.092	-1.03701
7.10833	100.109	-1.03708
7.11000	100.126	-1.03717
7.11167	100.142	-1.03725
7.11333	100.159	-1.03732
7.11500	100.177	-1.03739
7.11667	100.194	-1.03747
7.11833	100.210	-1.03755
7.12000	100.227	-1.03762
7.12167	100.243	-1.03766
7.12333	100.259	-1.03769
7.12500	100.277	-1.03772
7.12667	100.294	-1.03774
7.12833	100.310	-1.03777
7.13000	100.326	-1.03780
7.13167	100.342	-1.03782
7.13333	100.359	-1.03784
7.13500	100.377	-1.03785
7.13667	100.392	-1.03789
7.13833	100.409	-1.03797
7.14000	100.426	-1.03804
7.14167	100.443	-1.03810
7.14333	100.460	-1.03816
7.14500	100.476	-1.03823
7.14667	100.493	-1.03831
7.14833	100.509	-1.03839
7.15000	100.526	-1.03845
7.15167	100.542	-1.03847
7.15333	100.559	-1.03848
7.15500	100.576	-1.03851
7.15667	100.592	-1.03855
7.15833	100.609	-1.03860
7.16000	100.626	-1.03865
7.16167	100.643	-1.03871
7.16333	100.660	-1.03877
7.16500	100.676	-1.03886
7.16667	100.693	-1.03895
7.16833	100.710	-1.03904
7.17000	100.726	-1.03908
7.17167	100.742	-1.03912
7.17333	100.759	-1.03916
7.17500	100.775	-1.03921
7.17667	100.793	-1.03927
7.17833	100.808	-1.03934
7.18000	100.826	-1.03942
7.18167	100.843	-1.03951
7.18333	100.859	-1.03960
7.18500	100.877	-1.03969
7.18667	100.894	-1.03975
7.18833	100.910	-1.03979
7.19000	100.927	-1.03983
7.19167	100.943	-1.03986
7.19333	100.959	-1.03989
7.19500	100.976	-1.03993
7.19667	100.994	-1.03996
7.19833	101.009	-1.04002
7.20000	101.026	-1.04009
7.20167	101.044	-1.04016
7.20333	101.061	-1.04023
7.20500	101.076	-1.04029
7.20667	101.094	-1.04036
7.20833	101.110	-1.04044
7.21000	101.126	-1.04053
7.21167	101.143	-1.04063
7.21333	101.160	-1.04074
7.21500	101.176	-1.04082
7.21667	101.194	-1.04090
7.21833	101.209	-1.04097
7.22000	101.227	-1.04104
7.22167	101.243	-1.04113
7.22333	101.260	-1.04120
7.22500	101.277	-1.04127
7.22667	101.294	-1.04136
7.22833	101.309	-1.04146
7.23000	101.326	-1.04154
7.23167	101.343	-1.04160
7.23333	101.359	-1.04164
7.23500	101.376	-1.04167
7.23667	101.393	-1.04171
7.23833	101.409	-1.04175
7.24000	101.427	-1.04179
7.24167	101.443	-1.04185
7.24333	101.460	-1.04190
7.24500	101.477	-1.04197
7.24667	101.493	-1.04203
7.24833	101.510	-1.04209
7.25000	101.526	-1.04215
7.25167	101.542	-1.04221
7.25333	101.559	-1.04226
7.25500	101.576	-1.04231
7.25667	101.593	-1.04235
7.25833	101.610	-1.04240
7.26000	101.627	-1.04246
7.26167	101.643	-1.04253
7.26333	101.660	-1.04262
7.26500	101.676	-1.04271
7.26667	101.694	-1.04279
7.26833	101.709	-1.04287
7.27000	101.726	-1.04295
7.27167	101.743	-1.04302
7.27333	101.760	-1.04306
7.27500	101.777	-1.04309
7.27667	101.793	-1.04313
7.27833	101.810	-1.04319
7.28000	101.826	-1.04325
7.28167	101.844	-1.04333
7.28333	101.860	-1.04344
7.28500	101.876	-1.04353
7.28667	101.895	-1.04364
7.28833	101.910	-1.04373
7.29000	101.926	-1.04379
7.29167	101.943	-1.04382
7.29333	101.960	-1.04384
7.29500	101.977	-1.04386
7.29667	101.993	-1.04389
7.29833	102.010	-1.04392
7.30000	102.027	-1.04399
7.30167	102.044	-1.04406
7.30333	102.060	-1.04414
7.30500	102.077	-1.04423
7.30667	102.093	-1.04432
7.30833	102.110	-1.04440
7.31000	102.127	-1.04446
7.31167	102.143	-1.04453
7.31333	102.160	-1.04458
7.31500	102.176	-1.04463
7.31667	102.194	-1.04469
7.31833	102.210	-1.04480
7.32000	102.226	-1.04491
7.32167	102.243	-1.04509
7.32333	102.260	-1.04523
7.32500	102.276	-1.04534
7.32667	102.293	-1.04544
7.32833	102.310	-1.04552
7.33000	102.326	-1.04558
7.33167	102.345	-1.04561
7.33333	102.360	-1.04563
7.33500	102.377	-1.04565
7.33667	102.393	-1.04569
7.33833	102.410	-1.04574
7.34000	102.427	-1.04583
7.34167	102.443	-1.04591
7.34333	102.460	-1.04600
7.34500	102.477	-1.04608
7.34667	102.494	-1.04616
7.34833	102.510	-1.04622
7.35000	102.526	-1.04627
7.35167	102.543	-1.04631
7.35333	102.559	-1.04636
7.35500	102.577	-1.04638
7.35667	102.593	-1.04642
7.35833	102.610	-1.04647
7.36000	102.626	-1.04653
7.36167	102.644	-1.04657
7.36333	102.660	-1.04662
7.36500	102.676	-1.04668
7.36667	102.692	-1.04676
7.36833	102.710	-1.04684
7.37000	102.727	-1.04692
7.37167	102.743	-1.04699
7.37333	102.760	-1.04704
7.37500	102.776	-1.04707
7.37667	102.793	-1.04713
7.37833	102.810	-1.04719
7.38000	102.827	-1.04725
7.38167	102.844	-1.04730
7.38333	102.860	-1.04735
7.38500	102.876	-1.04744
7.38667	102.893	-1.04754
7.38833	102.910	-1.04769
7.39000	102.927	-1.04786
7.39167	102.943	-1.04798
7.39333	102.959	-1.04808
7.39500	102.977	-1.04819
7.39667	102.994	-1.04829
7.39833	103.011	-1.04834
7.40000	103.027	-1.04838
7.40167	103.044	-1.04835
7.40333	103.059	-1.04832
7.40500	103.076	-1.04831
7.40667	103.093	-1.04833
7.40833	103.110	-1.04838
7.41000	103.127	-1.04844
7.41167	103.143	-1.04850
7.41333	103.160	-1.04858
7.41500	103.177	-1.04865
7.41667	103.194	-1.04876
7.41833	103.210	-1.04889
7.42000	103.227	-1.04898
7.42167	103.243	-1.04908
7.42333	103.259	-1.04915
7.42500	103.277	-1.04922
7.42667	103.293	-1.04927
7.42833	103.310	-1.04934
7.43000	103.326	-1.04940
7.43167	103.344	-1.04943
7.43333	103.360	-1.04947
7.43500	103.377	-1.04953
7.43667	103.394	-1.04959
7.43833	103.410	-1.04967
7.44000	103.427	-1.04974
7.44167	103.444	-1.04982
7.44333	103.460	-1.04989
7.44500	103.477	-1.04994
7.44667	103.493	-1.05001
7.44833	103.510	-1.05008
7.45000	103.527	-1.05015
7.45167	103.544	-1.05022
7.45333	103.560	-1.05029
7.45500	103.576	-1.05037
7.45667	103.594	-1.05045
7.45833	103.609	-1.05053
7.46000	103.627	-1.05060
7.46167	103.643	-1.05069
7.46333	103.660	-1.05079
7.46500	103.677	-1.05088
7.46667	103.693	-1.05097
7.46833	103.710	-1.05105
7.47000	103.727	-1.05115
7.47167	103.743	-1.05123
7.47333	103.760	-1.05131
7.47500	103.776	-1.05139
7.47667	103.793	-1.05144
7.47833	103.810	-1.05149
7.48000	103.827	-1.05155
7.48167	103.843	-1.05160
7.48333	103.859	-1.05165
7.48500	103.877	-1.05170
7.48667	103.893	-1.05174
7.48833	103.910	-1.05179
7.49000	103.927	-1.05185
7.49167	103.943	-1.05192
7.49333	103.959	-1.05200
7.49500	103.976	-1.05207
7.49667	103.993	-1.05213
7.49833	104.010	-1.05220
7.50000	104.027	-1.05225
7.50167	104.043	-1.05229
7.50333	104.060	-1.05234
7.50500	104.077	-1.05240
7.50667	104.094	-1.05248
7.50833	104.110	-1.05256
7.51000	104.127	-1.05265
7.51167	104.142	-1.05273
7.51333	104.160	-1.05281
7.51500	104.177	-1.05288
7.51667	104.194	-1.05296
7.51833	104.210	-1.05303
7.52000	104.227	-1.05307
7.52167	104.243	-1.05311
7.52333	104.261	-1.05316
7.52500	104.278	-1.05322
7.52667	104.294	-1.05328
7.52833	104.310	-1.05337
7.53000	104.327	-1.05344
7.53167	104.343	-1.05351
7.53333	104.360	-1.05361
7.53500	104.376	-1.05374
7.53667	104.394	-1.05383
7.53833	104.410	-1.05392
7.54000	104.427	-1.05399
7.54167	104.444	-1.05408
7.54333	104.461	-1.05417
7.54500	104.478	-1.05424
7.54667	104.495	-1.05429
7.54833	104.511	-1.05434
7.55000	104.527	-1.05436
7.55167	104.543	-1.05441
7.55333	104.560	-1.05447
7.55500	104.577	-1.05454
7.55667	104.594	-1.05461
7.55833	104.610	-1.05470
7.56000	104.628	-1.05479
7.56167	104.644	-1.05488
7.56333	104.660	-1.05498
7.56500	104.679	-1.05506
7.56667	104.695	-1.05515
7.56833	104.711	-1.05522
7.57000	104.728	-1.05529
7.57167	104.744	-1.05534
7.57333	104.761	-1.05537
7.57500	104.776	-1.05542
7.57667	104.794	-1.05547
7.57833	104.811	-1.05552
7.58000	104.827	-1.05557
7.58167	104.844	-1.05563
7.58333	104.860	-1.05571
7.58500	104.878	-1.05578
7.58667	104.894	-1.05585
7.58833	104.911	-1.05591
7.59000	104.927	-1.05596
7.59167	104.945	-1.05599
7.59333	104.961	-1.05603
7.59500	104.977	-1.05607
7.59667	104.995	-1.05612
7.59833	105.010	-1.05614
7.60000	105.027	-1.05618
7.60167	105.044	-1.05623
7.60333	105.061	-1.05629
7.60500	105.077	-1.05635
7.60667	105.094	-1.05641
7.60833	105.111	-1.05649
7.61000	105.126	-1.05656
7.61167	105.144	-1.05663
7.61333	105.161	-1.05672
7.61500	105.176	-1.05679
7.61667	105.193	-1.05685
7.61833	105.211	-1.05692
7.62000	105.227	-1.05701
7.62167	105.244	-1.05709
7.62333	105.261	-1.05714
7.62500	105.278	-1.05719
7.62667	105.294	-1.05727
7.62833	105.311	-1.05735
7.63000	105.328	-1.05741
7.63167	105.344	-1.05749
7.63333	105.361	-1.05754
7.63500	105.377	-1.05760
7.63667	105.394	-1.05767
7.63833	105.409	-1.05778
7.64000	105.428	-1.05787
7.64167	105.443	-1.05793
7.64333	105.460	-1.05801
7.64500	105.477	-1.05809
7.64667	105.493	-1.05816
7.64833	105.510	-1.05823
7.65000	105.527	-1.05828
7.65167	105.544	-1.05830
7.65333	105.561	-1.05830
7.65500	105.578	-1.05832
7.65667	105.594	-1.05835
7.65833	105.611	-1.05836
7.66000	105.627	-1.05837
7.66167	105.644	-1.05841
7.66333	105.661	-1.05847
7.66500	105.676	-1.05855
7.66667	105.693	-1.05865
7.66833	105.709	-1.05882
7.67000	105.728	-1.05893
7.67167	105.744	-1.05903
7.67333	105.762	-1.05910
7.67500	105.778	-1.05916
7.67667	105.794	-1.05922
7.67833	105.811	-1.05926
7.68000	105.828	-1.05932
7.68167	105.845	-1.05938
7.68333	105.861	-1.05944
7.68500	105.879	-1.05952
7.68667	105.895	-1.05960
7.68833	105.911	-1.05968
7.69000	105.928	-1.05974
7.69167	105.944	-1.05979
7.69333	105.960	-1.05985
7.69500	105.977	-1.05990
7.69667	105.995	-1.05997
7.69833	106.011	-1.06006
7.70000	106.028	-1.06016
7.70167	106.044	-1.06027
7.70333	106.061	-1.06037
7.70500	106.078	-1.06044
7.70667	106.095	-1.06048
7.70833	106.111	-1.06052
7.71000	106.127	-1.06055
7.71167	106.143	-1.06059
7.71333	106.160	-1.06063
7.71500	106.178	-1.06068
7.71667	106.195	-1.06073
7.71833	106.211	-1.06080
7.72000	106.228	-1.06088
7.72167	106.245	-1.06094
7.72333	106.261	-1.06101
7.72500	106.279	-1.06106
7.72667	106.295	-1.06113
7.72833	106.312	-1.06119
7.73000	106.328	-1.06127
7.73167	106.345	-1.06136
7.73333	106.361	-1.06144
7.73500	106.378	-1.06151
7.73667	106.395	-1.06161
7.73833	106.412	-1.06172
7.74000	106.428	-1.06181
7.74167	106.445	-1.06190
7.74333	106.461	-1.06195
7.74500	106.478	-1.06201
7.74667	106.495	-1.06208
7.74833	106.511	-1.06213
7.75000	106.528	-1.06220
7.75167	106.545	-1.06228
7.75333	106.561	-1.06235
7.75500	106.579	-1.06245
7.75667	106.595	-1.06254
7.75833	106.612	-1.06264
7.76000	106.628	-1.06273
7.76167	106.645	-1.06279
7.76333	106.662	-1.06284
7.76500	106.679	-1.06289
7.76667	106.695	-1.06294
7.76833	106.712	-1.06300
7.77000	106.728	-1.06305
7.77167	106.745	-1.06309
7.77333	106.761	-1.06315
7.77500	106.779	-1.06324
7.77667	106.795	-1.06331
7.77833	106.810	-1.06339
7.78000	106.828	-1.06348
7.78167	106.845	-1.06356
7.78333	106.863	-1.06365
7.78500	106.878	-1.06374
7.78667	106.894	-1.06382
7.78833	106.912	-1.06388
7.79000	106.929	-1.06392
7.79167	106.946	-1.06395
7.79333	106.962	-1.06401
7.79500	106.978	-1.06408
7.79667	106.996	-1.06415
7.79833	107.012	-1.06424
7.80000	107.029	-1.06433
7.80167	107.046	-1.06442
7.80333	107.062	-1.06451
7.80500	107.079	-1.06460
7.80667	107.094	-1.06468
7.80833	107.111	-1.06475
7.81000	107.129	-1.06478
7.81167	107.145	-1.06482
7.81333	107.163	-1.06483
7.81500	107.179	-1.06485
7.81667	107.196	-1.06487
7.81833	107.212	-1.06491
7.82000	107.229	-1.06497
7.82167	107.245	-1.06503
7.82333	107.262	-1.06511
7.82500	107.279	-1.06519
7.82667	107.295	-1.06529
7.82833	107.312	-1.06541
7.83000	107.329	-1.06552
7.83167	107.346	-1.06562
7.83333	107.363	-1.06570
7.83500	107.379	-1.06576
7.83667	107.395	-1.06584
7.83833	107.412	-1.06592
7.84000	107.429	-1.06597
7.84167	107.445	-1.06602
7.84333	107.462	-1.06606
7.84500	107.478	-1.06610
7.84667	107.495	-1.06614
7.84833	107.512	-1.06618
7.85000	107.529	-1.06622
7.85167	107.545	-1.06626
7.85333	107.562	-1.06631
7.85500	107.580	-1.06636
7.85667	107.596	-1.06641
7.85833	107.613	-1.06645
7.86000	107.629	-1.06651
7.86167	107.645	-1.06656
7.86333	107.662	-1.06662
7.86500	107.679	-1.06670
7.86667	107.695	-1.06681
7.86833	107.712	-1.06693
7.87000	107.728	-1.06712
7.87167	107.746	-1.06749
7.87333	107.763	-1.06767
7.87500	107.780	-1.06778
7.87667	107.796	-1.06787
7.87833	107.813	-1.06794
7.88000	107.831	-1.06802
7.88167	107.846	-1.06807
7.88333	107.862	-1.06813
7.88500	107.880	-1.06817
7.88667	107.896	-1.06821
7.88833	107.913	-1.06825
7.89000	107.929	-1.06829
7.89167	107.946	-1.06834
7.89333	107.963	-1.06838
7.89500	107.979	-1.06842
7.89667	107.996	-1.06844
7.89833	108.013	-1.06847
7.90000	108.029	-1.06850
7.90167	108.045	-1.06853
7.90333	108.063	-1.06855
7.90500	108.078	-1.06860
7.90667	108.096	-1.06866
7.90833	108.112	-1.06873
7.91000	108.129	-1.06881
7.91167	108.145	-1.06889
7.91333	108.162	-1.06895
7.91500	108.178	-1.06899
7.91667	108.196	-1.06904
7.91833	108.212	-1.06910
7.92000	108.229	-1.06914
7.92167	108.246	-1.06918
7.92333	108.263	-1.06925
7.92500	108.279	-1.06932
7.92667	108.296	-1.06940
7.92833	108.312	-1.06949
7.93000	108.329	-1.06956
7.93167	108.346	-1.06958
7.93333	108.363	-1.06959
7.93500	108.379	-1.06959
7.93667	108.397	-1.06958
7.93833	108.414	-1.06953
7.94000	108.430	-1.06950
7.94167	108.446	-1.06949
7.94333	108.463	-1.06952
7.94500	108.479	-1.06959
7.94667	108.495	-1.06966
7.94833	108.512	-1.06974
7.95000	108.530	-1.06982
7.95167	108.545	-1.06991
7.95333	108.563	-1.07000
7.95500	108.579	-1.07010
7.95667	108.596	-1.07016
7.95833	108.613	-1.07020
7.96000	108.630	-1.07024
7.96167	108.647	-1.07029
7.96333	108.662	-1.07036
7.96500	108.679	-1.07043
7.96667	108.696	-1.07051
7.96833	108.712	-1.07060
7.97000	108.729	-1.07073
7.97167	108.746	-1.07083
7.97333	108.763	-1.07092
7.97500	108.780	-1.07101
7.97667	108.796	-1.07107
7.97833	108.813	-1.07111
7.98000	108.829	-1.07114
7.98167	108.847	-1.07115
7.98333	108.861	-1.07117
7.98500	108.880	-1.07119
7.98667	108.896	-1.07120
7.98833	108.912	-1.07125
7.99000	108.929	-1.07131
7.99167	108.946	-1.07138
7.99333	108.962	-1.07145
7.99500	108.980	-1.07149
7.99667	108.996	-1.07152
7.99833	109.012	-1.07155
8.00000	109.030	-1.07157
8.00167	109.046	-1.07158
8.00333	109.063	-1.07158
8.00500	109.079	-1.07158
8.00667	109.096	-1.07160
8.00833	109.113	-1.07163
8.01000	109.130	-1.07171
8.01167	109.146	-1.07179
8.01333	109.163	-1.07186
8.01500	109.179	-1.07194
8.01667	109.196	-1.07206
8.01833	109.212	-1.07226
8.02000	109.229	-1.07238
8.02167	109.246	-1.07247
8.02333	109.263	-1.07254
8.02500	109.281	-1.07259
8.02667	109.297	-1.07264
8.02833	109.313	-1.07268
8.03000	109.330	-1.07273
8.03167	109.347	-1.07276
8.03333	109.363	-1.07280
8.03500	109.380	-1.07282
8.03667	109.397	-1.07285
8.03833	109.413	-1.07289
8.04000	109.430	-1.07294
8.04167	109.447	-1.07299
8.04333	109.464	-1.07304
8.04500	109.480	-1.07307
8.04667	109.496	-1.07312
8.04833	109.514	-1.07318
8.05000	109.530	-1.07323
8.05167	109.547	-1.07326
8.05333	109.563	-1.07328
8.05500	109.581	-1.07332
8.05667	109.596	-1.07338
8.05833	109.614	-1.07345
8.06000	109.631	-1.07353
8.06167	109.646	-1.07363
8.06333	109.664	-1.07372
8.06500	109.680	-1.07382
8.06667	109.697	-1.07390
8.06833	109.713	-1.07398
8.07000	109.729	-1.07405
8.07167	109.746	-1.07412
8.07333	109.763	-1.07419
8.07500	109.780	-1.07425
8.07667	109.797	-1.07431
8.07833	109.813	-1.07437
8.08000	109.831	-1.07443
8.08167	109.847	-1.07449
8.08333	109.864	-1.07452
8.08500	109.881	-1.07453
8.08667	109.897	-1.07452
8.08833	109.914	-1.07448
8.09000	109.930	-1.07447
8.09167	109.947	-1.07447
8.09333	109.965	-1.07448
8.09500	109.981	-1.07450
8.09667	109.997	-1.07452
8.09833	110.012	-1.07458
8.10000	110.030	-1.07466
8.10167	110.047	-1.07476
8.10333	110.064	-1.07483
8.10500	110.080	-1.07489
8.10667	110.097	-1.07493
8.10833	110.113	-1.07496
8.11000	110.131	-1.07501
8.11167	110.147	-1.07507
8.11333	110.164	-1.07514
8.11500	110.180	-1.07519
8.11667	110.197	-1.07523
8.11833	110.213	-1.07528
8.12000	110.230	-1.07535
8.12167	110.247	-1.07542
8.12333	110.264	-1.07550
8.12500	110.279	-1.07557
8.12667	110.297	-1.07561
8.12833	110.314	-1.07566
8.13000	110.331	-1.07571
8.13167	110.347	-1.07576
8.13333	110.363	-1.07581
8.13500	110.379	-1.07584
8.13667	110.396	-1.07587
8.13833	110.413	-1.07591
8.14000	110.429	-1.07595
8.14167	110.446	-1.07601
8.14333	110.464	-1.07607
8.14500	110.480	-1.07611
8.14667	110.497	-1.07614
8.14833	110.514	-1.07618
8.15000	110.530	-1.07625
8.15167	110.547	-1.07634
8.15333	110.564	-1.07644
8.15500	110.580	-1.07654
8.15667	110.597	-1.07664
8.15833	110.614	-1.07674
8.16000	110.630	-1.07681
8.16167	110.647	-1.07687
8.16333	110.664	-1.07691
8.16500	110.681	-1.07693
8.16667	110.697	-1.07694
8.16833	110.715	-1.07696
8.17000	110.730	-1.07698
8.17167	110.747	-1.07702
8.17333	110.764	-1.07708
8.17500	110.780	-1.07716
8.17667	110.797	-1.07724
8.17833	110.813	-1.07733
8.18000	110.831	-1.07743
8.18167	110.847	-1.07757
8.18333	110.863	-1.07783
8.18500	110.880	-1.07803
8.18667	110.898	-1.07813
8.18833	110.915	-1.07823
8.19000	110.931	-1.07832
8.19167	110.949	-1.07841
8.19333	110.964	-1.07846
8.19500	110.981	-1.07852
8.19667	110.997	-1.07858
8.19833	111.014	-1.07866
8.20000	111.031	-1.07874
8.20167	111.048	-1.07882
8.20333	111.065	-1.07890
8.20500	111.082	-1.07896
8.20667	111.098	-1.07903
8.20833	111.114	-1.07909
8.21000	111.132	-1.07915
8.21167	111.147	-1.07919
8.21333	111.164	-1.07922
8.21500	111.181	-1.07927
8.21667	111.198	-1.07932
8.21833	111.214	-1.07938
8.22000	111.230	-1.07943
8.22167	111.247	-1.07948
8.22333	111.263	-1.07952
8.22500	111.280	-1.07957
8.22667	111.298	-1.07962
8.22833	111.314	-1.07967
8.23000	111.332	-1.07973
8.23167	111.348	-1.07978
8.23333	111.364	-1.07984
8.23500	111.381	-1.07990
8.23667	111.397	-1.07997
8.23833	111.415	-1.08006
8.24000	111.432	-1.08017
8.24167	111.448	-1.08029
8.24333	111.465	-1.08043
8.24500	111.481	-1.08054
8.24667	111.498	-1.08065
8.24833	111.515	-1.08078
8.25000	111.532	-1.08090
8.25167	111.547	-1.08100
8.25333	111.564	-1.08108
8.25500	111.581	-1.08114
8.25667	111.598	-1.08119
8.25833	111.615	-1.08124
8.26000	111.631	-1.08127
8.26167	111.648	-1.08130
8.26333	111.665	-1.08129
8.26500	111.681	-1.08129
8.26667	111.700	-1.08131
8.26833	111.714	-1.08137
8.27000	111.731	-1.08143
8.27167	111.748	-1.08149
8.27333	111.764	-1.08155
8.27500	111.782	-1.08161
8.27667	111.798	-1.08166
8.27833	111.815	-1.08172
8.28000	111.832	-1.08177
8.28167	111.848	-1.08183
8.28333	111.865	-1.08189
8.28500	111.882	-1.08196
8.28667	111.898	-1.08204
8.28833	111.914	-1.08211
8.29000	111.933	-1.08219
8.29167	111.949	-1.08225
8.29333	111.965	-1.08230
8.29500	111.983	-1.08231
8.29667	111.997	-1.08231
8.29833	112.015	-1.08231
8.30000	112.031	-1.08232
8.30167	112.049	-1.08235
8.30333	112.065	-1.08241
8.30500	112.081	-1.08249
8.30667	112.099	-1.08257
8.30833	112.117	-1.08268
8.31000	112.133	-1.08283
8.31167	112.150	-1.08297
8.31333	112.165	-1.08306
8.31500	112.182	-1.08310
8.31667	112.199	-1.08314
8.31833	112.215	-1.08318
8.32000	112.232	-1.08321
8.32167	112.249	-1.08326
8.32333	112.265	-1.08332
8.32500	112.283	-1.08340
8.32667	112.299	-1.08349
8.32833	112.316	-1.08356
8.33000	112.332	-1.08362
8.33167	112.349	-1.08367
8.33333	112.365	-1.08370
8.33500	112.382	-1.08373
8.33667	112.398	-1.08377
8.33833	112.415	-1.08380
8.34000	112.432	-1.08384
8.34167	112.449	-1.08393
8.34333	112.465	-1.08404
8.34500	112.481	-1.08418
8.34667	112.498	-1.08427
8.34833	112.513	-1.08434
8.35000	112.532	-1.08438
8.35167	112.549	-1.08442
8.35333	112.565	-1.08445
8.35500	112.582	-1.08447
8.35667	112.599	-1.08447
8.35833	112.615	-1.08446
8.36000	112.632	-1.08449
8.36167	112.649	-1.08452
8.36333	112.665	-1.08458
8.36500	112.681	-1.08464
8.36667	112.698	-1.08470
8.36833	112.715	-1.08474
8.37000	112.732	-1.08477
8.37167	112.750	-1.08481
8.37333	112.765	-1.08483
8.37500	112.782	-1.08486
8.37667	112.799	-1.08488
8.37833	112.815	-1.08491
8.38000	112.832	-1.08499
8.38167	112.848	-1.08507
8.38333	112.866	-1.08516
8.38500	112.881	-1.08525
8.38667	112.899	-1.08532
8.38833	112.916	-1.08541
8.39000	112.932	-1.08548
8.39167	112.948	-1.08553
8.39333	112.965	-1.08560
8.39500	112.982	-1.08566
8.39667	112.999	-1.08571
8.39833	113.015	-1.08578
8.40000	113.031	-1.08584
8.40167	113.049	-1.08587
8.40333	113.065	-1.08591
8.40500	113.082	-1.08596
8.40667	113.098	-1.08604
8.40833	113.116	-1.08613
8.41000	113.131	-1.08623
8.41167	113.148	-1.08635
8.41333	113.166	-1.08650
8.41500	113.182	-1.08661
8.41667	113.198	-1.08669
8.41833	113.214	-1.08678
8.42000	113.231	-1.08686
8.42167	113.248	-1.08692
8.42333	113.264	-1.08698
8.42500	113.281	-1.08705
8.42667	113.299	-1.08713
8.42833	113.315	-1.08720
8.43000	113.332	-1.08725
8.43167	113.348	-1.08729
8.43333	113.365	-1.08732
8.43500	113.382	-1.08734
8.43667	113.399	-1.08737
8.43833	113.416	-1.08739
8.44000	113.432	-1.08744
8.44167	113.449	-1.08747
8.44333	113.465	-1.08751
8.44500	113.482	-1.08755
8.44667	113.499	-1.08762
8.44833	113.515	-1.08768
8.45000	113.531	-1.08773
8.45167	113.548	-1.08779
8.45333	113.564	-1.08786
8.45500	113.582	-1.08792
8.45667	113.598	-1.08797
8.45833	113.614	-1.08803
8.46000	113.631	-1.08807
8.46167	113.648	-1.08812
8.46333	113.664	-1.08816
8.46500	113.681	-1.08820
8.46667	113.698	-1.08825
8.46833	113.715	-1.08828
8.47000	113.732	-1.08832
8.47167	113.749	-1.08836
8.47333	113.766	-1.08840
8.47500	113.782	-1.08846
8.47667	113.799	-1.08854
8.47833	113.815	-1.08861
8.48000	113.831	-1.08870
8.48167	113.848	-1.08878
8.48333	113.865	-1.08884
8.48500	113.881	-1.08889
8.48667	113.898	-1.08893
8.48833	113.915	-1.08895
8.49000	113.931	-1.08898
8.49167	113.948	-1.08902
8.49333	113.965	-1.08908
8.49500	113.981	-1.08919
8.49667	113.998	-1.08928
8.49833	114.016	-1.08942
8.50000	114.031	-1.08958
8.50167	114.048	-1.08982
8.50333	114.066	-1.08992
8.50500	114.082	-1.09000
8.50667	114.099	-1.09006
8.50833	114.116	-1.09013
8.51000	114.132	-1.09019
8.51167	114.149	-1.09024
8.51333	114.166	-1.09030
8.51500	114.182	-1.09034
8.51667	114.198	-1.09038
8.51833	114.216	-1.09044
8.52000	114.232	-1.09050
8.52167	114.249	-1.09057
8.52333	114.265	-1.09064
8.52500	114.282	-1.09073
8.52667	114.299	-1.09078
8.52833	114.315	-1.09081
8.53000	114.332	-1.09085
8.53167	114.349	-1.09091
8.53333	114.365	-1.09096
8.53500	114.382	-1.09102
8.53667	114.399	-1.09109
8.53833	114.415	-1.09116
8.54000	114.432	-1.09126
8.54167	114.449	-1.09136
8.54333	114.467	-1.09147
8.54500	114.483	-1.09157
8.54667	114.499	-1.09166
8.54833	114.516	-1.09175
8.55000	114.533	-1.09184
8.55167	114.550	-1.09194
8.55333	114.565	-1.09204
8.55500	114.582	-1.09212
8.55667	114.598	-1.09219
8.55833	114.615	-1.09225
8.56000	114.631	-1.09232
8.56167	114.649	-1.09240
8.56333	114.665	-1.09248
8.56500	114.683	-1.09255
8.56667	114.700	-1.09259
8.56833	114.717	-1.09264
8.57000	114.732	-1.09268
8.57167	114.750	-1.09270
8.57333	114.766	-1.09272
8.57500	114.783	-1.09274
8.57667	114.799	-1.09278
8.57833	114.816	-1.09282
8.58000	114.834	-1.09288
8.58167	114.849	-1.09296
8.58333	114.866	-1.09306
8.58500	114.883	-1.09316
8.58667	114.899	-1.09323
8.58833	114.916	-1.09328
8.59000	114.932	-1.09333
8.59167	114.950	-1.09338
8.59333	114.965	-1.09342
8.59500	114.982	-1.09347
8.59667	114.998	-1.09351
8.59833	115.017	-1.09356
8.60000	115.032	-1.09362
8.60167	115.049	-1.09368
8.60333	115.066	-1.09377
8.60500	115.083	-1.09385
8.60667	115.100	-1.09391
8.60833	115.117	-1.09397
8.61000	115.134	-1.09404
8.61167	115.150	-1.09409
8.61333	115.166	-1.09413
8.61500	115.183	-1.09418
8.61667	115.200	-1.09422
8.61833	115.216	-1.09426
8.62000	115.233	-1.09431
8.62167	115.249	-1.09437
8.62333	115.266	-1.09442
8.62500	115.282	-1.09447
8.62667	115.300	-1.09453
8.62833	115.316	-1.09461
8.63000	115.332	-1.09468
8.63167	115.350	-1.09474
8.63333	115.366	-1.09480
8.63500	115.382	-1.09486
8.63667	115.400	-1.09491
8.63833	115.416	-1.09495
8.64000	115.433	-1.09498
8.64167	115.450	-1.09500
8.64333	115.467	-1.09504
8.64500	115.483	-1.09510
8.64667	115.499	-1.09516
8.64833	115.515	-1.09521
8.65000	115.532	-1.09527
8.65167	115.549	-1.09532
8.65333	115.566	-1.09538
8.65500	115.583	-1.09541
8.65667	115.599	-1.09544
8.65833	115.616	-1.09547
8.66000	115.632	-1.09550
8.66167	115.649	-1.09554
8.66333	115.666	-1.09561
8.66500	115.683	-1.09570
8.66667	115.699	-1.09576
8.66833	115.717	-1.09584
8.67000	115.732	-1.09592
8.67167	115.750	-1.09599
8.67333	115.767	-1.09603
8.67500	115.784	-1.09606
8.67667	115.800	-1.09610
8.67833	115.817	-1.09615
8.68000	115.833	-1.09618
8.68167	115.849	-1.09622
8.68333	115.866	-1.09629
8.68500	115.883	-1.09634
8.68667	115.899	-1.09639
8.68833	115.916	-1.09644
8.69000	115.933	-1.09650
8.69167	115.949	-1.09654
8.69333	115.966	-1.09660
8.69500	115.983	-1.09667
8.69667	116.001	-1.09673
8.69833	116.017	-1.09679
8.70000	116.034	-1.09685
8.70167	116.050	-1.09693
8.70333	116.066	-1.09700
8.70500	116.083	-1.09707
8.70667	116.100	-1.09712
8.70833	116.116	-1.09717
8.71000	116.134	-1.09723
8.71167	116.149	-1.09730
8.71333	116.166	-1.09734
8.71500	116.183	-1.09739
8.71667	116.199	-1.09743
8.71833	116.217	-1.09747
8.72000	116.233	-1.09753
8.72167	116.249	-1.09757
8.72333	116.266	-1.09762
8.72500	116.282	-1.09768
8.72667	116.298	-1.09774
8.72833	116.316	-1.09782
8.73000	116.333	-1.09790
8.73167	116.349	-1.09795
8.73333	116.366	-1.09799
8.73500	116.383	-1.09801
8.73667	116.400	-1.09804
8.73833	116.415	-1.09807
8.74000	116.432	-1.09810
8.74167	116.450	-1.09811
8.74333	116.467	-1.09814
8.74500	116.483	-1.09819
8.74667	116.500	-1.09826
8.74833	116.517	-1.09833
8.75000	116.533	-1.09842
8.75167	116.549	-1.09852
8.75333	116.567	-1.09866
8.75500	116.584	-1.09876
8.75667	116.600	-1.09885
8.75833	116.618	-1.09892
8.76000	116.634	-1.09900
8.76167	116.650	-1.09908
8.76333	116.667	-1.09915
8.76500	116.684	-1.09920
8.76667	116.699	-1.09923
8.76833	116.717	-1.09925
8.77000	116.733	-1.09929
8.77167	116.749	-1.09934
8.77333	116.767	-1.09936
8.77500	116.783	-1.09939
8.77667	116.801	-1.09941
8.77833	116.817	-1.09942
8.78000	116.834	-1.09944
8.78167	116.851	-1.09947
8.78333	116.867	-1.09950
8.78500	116.884	-1.09954
8.78667	116.900	-1.09958
8.78833	116.917	-1.09966
8.79000	116.934	-1.09976
8.79167	116.950	-1.09984
8.79333	116.967	-1.09992
8.79500	116.983	-1.09999
8.79667	116.999	-1.10005
8.79833	117.017	-1.10008
8.80000	117.033	-1.10011
8.80167	117.049	-1.10013
8.80333	117.067	-1.10017
8.80500	117.083	-1.10022
8.80667	117.099	-1.10029
8.80833	117.116	-1.10037
8.81000	117.132	-1.10045
8.81167	117.150	-1.10054
8.81333	117.166	-1.10062
8.81500	117.183	-1.10071
8.81667	117.200	-1.10080
8.81833	117.216	-1.10089
8.82000	117.233	-1.10097
8.82167	117.249	-1.10104
8.82333	117.266	-1.10111
8.82500	117.284	-1.10120
8.82667	117.300	-1.10128
8.82833	117.315	-1.10135
8.83000	117.333	-1.10142
8.83167	117.349	-1.10148
8.83333	117.367	-1.10155
8.83500	117.383	-1.10162
8.83667	117.400	-1.10170
8.83833	117.417	-1.10174
8.84000	117.432	-1.10178
8.84167	117.450	-1.10181
8.84333	117.467	-1.10185
8.84500	117.484	-1.10191
8.84667	117.499	-1.10198
8.84833	117.517	-1.10202
8.85000	117.534	-1.10207
8.85167	117.550	-1.10213
8.85333	117.567	-1.10221
8.85500	117.584	-1.10230
8.85667	117.600	-1.10237
8.85833	117.616	-1.10245
8.86000	117.633	-1.10253
8.86167	117.651	-1.10262
8.86333	117.667	-1.10271
8.86500	117.683	-1.10280
8.86667	117.700	-1.10290
8.86833	117.717	-1.10300
8.87000	117.734	-1.10307
8.87167	117.750	-1.10315
8.87333	117.766	-1.10322
8.87500	117.785	-1.10327
8.87667	117.801	-1.10333
8.87833	117.817	-1.10340
8.88000	117.834	-1.10346
8.88167	117.851	-1.10355
8.88333	117.867	-1.10364
8.88500	117.884	-1.10375
8.88667	117.900	-1.10387
8.88833	117.917	-1.10398
8.89000	117.934	-1.10409
8.89167	117.950	-1.10417
8.89333	117.967	-1.10422
8.89500	117.985	-1.10427
8.89667	118.001	-1.10428
8.89833	118.018	-1.10428
8.90000	118.035	-1.10427
8.90167	118.051	-1.10426
8.90333	118.067	-1.10428
8.90500	118.084	-1.10432
8.90667	118.101	-1.10440
8.90833	118.117	-1.10450
8.91000	118.134	-1.10466
8.91167	118.152	-1.10495
8.91333	118.168	-1.10517
8.91500	118.185	-1.10543
8.91667	118.201	-1.10559
8.91833	118.218	-1.10569
8.92000	118.235	-1.10577
8.92167	118.251	-1.10583
8.92333	118.268	-1.10589
8.92500	118.285	-1.10594
8.92667	118.301	-1.10600
8.92833	118.317	-1.10606
8.93000	118.334	-1.10611
8.93167	118.351	-1.10614
8.93333	118.368	-1.10620
8.93500	118.384	-1.10628
8.93667	118.401	-1.10637
8.93833	118.418	-1.10648
8.94000	118.434	-1.10659
8.94167	118.451	-1.10674
8.94333	118.468	-1.10687
8.94500	118.485	-1.10697
8.94667	118.501	-1.10706
8.94833	118.518	-1.10712
8.95000	118.535	-1.10715
8.95167	118.552	-1.10717
8.95333	118.567	-1.10719
8.95500	118.585	-1.10723
8.95667	118.601	-1.10727
8.95833	118.618	-1.10735
8.96000	118.635	-1.10746
8.96167	118.651	-1.10765
8.96333	118.667	-1.10782
8.96500	118.685	-1.10796
8.96667	118.700	-1.10808
8.96833	118.718	-1.10817
8.97000	118.735	-1.10826
8.97167	118.752	-1.10833
8.97333	118.768	-1.10840
8.97500	118.785	-1.10848
8.97667	118.801	-1.10853
8.97833	118.818	-1.10857
8.98000	118.834	-1.10861
8.98167	118.851	-1.10865
8.98333	118.868	-1.10870
8.98500	118.885	-1.10878
8.98667	118.902	-1.10885
8.98833	118.919	-1.10893
8.99000	118.934	-1.10901
8.99167	118.952	-1.10909
8.99333	118.969	-1.10919
8.99500	118.984	-1.10928
8.99667	119.002	-1.10936
8.99833	119.017	-1.10941
9.00000	119.035	-1.10946
9.00167	119.051	-1.10950
9.00333	119.068	-1.10956
9.00500	119.085	-1.10961
9.00667	119.101	-1.10967
9.00833	119.117	-1.10973
9.01000	119.134	-1.10981
9.01167	119.151	-1.10990
9.01333	119.167	-1.11001
9.01500	119.184	-1.11012
9.01667	119.201	-1.11024
9.01833	119.217	-1.11036
9.02000	119.234	-1.11048
9.02167	119.251	-1.11060
9.02333	119.268	-1.11080
9.02500	119.285	-1.11095
9.02667	119.301	-1.11112
9.02833	119.318	-1.11125
9.03000	119.335	-1.11140
9.03167	119.351	-1.11153
9.03333	119.367	-1.11165
9.03500	119.383	-1.11174
9.03667	119.400	-1.11183
9.03833	119.418	-1.11188
9.04000	119.434	-1.11194
9.04167	119.450	-1.11199
9.04333	119.468	-1.11206
9.04500	119.484	-1.11211
9.04667	119.501	-1.11217
9.04833	119.518	-1.11224
9.05000	119.534	-1.11231
9.05167	119.551	-1.11240
9.05333	119.568	-1.11250
9.05500	119.584	-1.11262
9.05667	119.601	-1.11275
9.05833	119.617	-1.11293
9.06000	119.635	-1.11307
9.06167	119.652	-1.11320
9.06333	119.668	-1.11333
9.06500	119.685	-1.11345
9.06667	119.702	-1.11357
9.06833	119.718	-1.11368
9.07000	119.735	-1.11379
9.07167	119.750	-1.11389
9.07333	119.768	-1.11400
9.07500	119.785	-1.11412
9.07667	119.801	-1.11423
9.07833	119.818	-1.11434
9.08000	119.834	-1.11444
9.08167	119.851	-1.11455
9.08333	119.868	-1.11467
9.08500	119.885	-1.11484
9.08667	119.902	-1.11503
9.08833	119.918	-1.11527
9.09000	119.935	-1.11542
9.09167	119.951	-1.11562
9.09333	119.968	-1.11579
9.09500	119.985	-1.11593
9.09667	120.001	-1.11606
9.09833	120.019	-1.11618
9.10000	120.035	-1.11629
9.10167	120.052	-1.11640
9.10333	120.068	-1.11651
9.10500	120.085	-1.11663
9.10667	120.102	-1.11677
9.10833	120.118	-1.11693
9.11000	120.136	-1.11710
9.11167	120.152	-1.11730
9.11333	120.168	-1.11745
9.11500	120.185	-1.11760
9.11667	120.203	-1.11774
9.11833	120.218	-1.11787
9.12000	120.235	-1.11798
9.12167	120.251	-1.11808
9.12333	120.269	-1.11819
9.12500	120.284	-1.11832
9.12667	120.302	-1.11847
9.12833	120.318	-1.11865
9.13000	120.335	-1.11887
9.13167	120.352	-1.11903
9.13333	120.368	-1.11922
9.13500	120.385	-1.11937
9.13667	120.401	-1.11948
9.13833	120.418	-1.11958
9.14000	120.434	-1.11965
9.14167	120.451	-1.11972
9.14333	120.468	-1.11980
9.14500	120.484	-1.11989
9.14667	120.501	-1.11999
9.14833	120.518	-1.12012
9.15000	120.535	-1.12027
9.15167	120.552	-1.12066
9.15333	120.569	-1.12129
9.15500	120.585	-1.12216
9.15667	120.602	-1.12314
9.15833	120.617	-1.12396
9.16000	120.636	-1.12421
9.16167	120.651	-1.12439
9.16333	120.668	-1.12454
9.16500	120.685	-1.12465
9.16667	120.702	-1.12477
9.16833	120.719	-1.12487
9.17000	120.736	-1.12497
9.17167	120.751	-1.12506
9.17333	120.768	-1.12515
9.17500	120.786	-1.12525
9.17667	120.801	-1.12537
9.17833	120.819	-1.12549
9.18000	120.835	-1.12562
9.18167	120.852	-1.12574
9.18333	120.868	-1.12588
9.18500	120.885	-1.12603
9.18667	120.901	-1.12617
9.18833	120.918	-1.12632
9.19000	120.934	-1.12651
9.19167	120.951	-1.12679
9.19333	120.968	-1.12701
9.19500	120.985	-1.12746
9.19667	121.002	-1.12800
9.19833	121.018	-1.12872
9.20000	121.034	-1.12944
9.20167	121.051	-1.12986
9.20333	121.068	-1.13002
9.20500	121.085	-1.13017
9.20667	121.101	-1.13033
9.20833	121.117	-1.13047
9.21000	121.135	-1.13060
9.21167	121.152	-1.13071
9.21333	121.168	-1.13083
9.21500	121.184	-1.13096
9.21667	121.200	-1.13112
9.21833	121.217	-1.13129
9.22000	121.234	-1.13158
9.22167	121.250	-1.13186
9.22333	121.268	-1.13236
9.22500	121.284	-1.13287
9.22667	121.301	-1.13324
9.22833	121.317	-1.13368
9.23000	121.334	-1.13398
9.23167	121.351	-1.13416
9.23333	121.367	-1.13432
9.23500	121.384	-1.13449
9.23667	121.401	-1.13467
9.23833	121.416	-1.13483
9.24000	121.434	-1.13497
9.24167	121.450	-1.13510
9.24333	121.467	-1.13524
9.24500	121.483	-1.13538
9.24667	121.500	-1.13554
9.24833	121.516	-1.13571
9.25000	121.533	-1.13589
9.25167	121.551	-1.13607
9.25333	121.567	-1.13648
9.25500	121.583	-1.13716
9.25667	121.600	-1.13803
9.25833	121.617	-1.13875
9.26000	121.633	-1.13938
9.26167	121.649	-1.13996
9.26333	121.667	-1.14047
9.26500	121.684	-1.14097
9.26667	121.700	-1.14148
9.26833	121.717	-1.14175
9.27000	121.733	-1.14215
9.27167	121.750	-1.14256
9.27333	121.767	-1.14314
9.27500	121.783	-1.14377
9.27667	121.800	-1.14435
9.27833	121.817	-1.14523
9.28000	121.833	-1.14614
9.28167	121.850	-1.14712
9.28333	121.867	-1.14805
9.28500	121.883	-1.14879
9.28667	121.901	-1.14920
9.28833	121.917	-1.14976
9.29000	121.933	-1.15035
9.29167	121.949	-1.15073
9.29333	121.966	-1.15098
9.29500	121.983	-1.15122
9.29667	122.000	-1.15151
9.29833	122.016	-1.15192
9.30000	122.033	-1.15231
9.30167	122.049	-1.15273
9.30333	122.066	-1.15313
9.30500	122.083	-1.15347
9.30667	122.100	-1.15394
9.30833	122.116	-1.15455
9.31000	122.133	-1.15529
9.31167	122.149	-1.15605
9.31333	122.167	-1.15667
9.31500	122.183	-1.15741
9.31667	122.200	-1.15845
9.31833	122.216	-1.15972
9.32000	122.233	-1.16095
9.32167	122.249	-1.16202
9.32333	122.266	-1.16303
9.32500	122.282	-1.16372
9.32667	122.299	-1.16407
9.32833	122.315	-1.16463
9.33000	122.332	-1.16515
9.33167	122.349	-1.16551
9.33333	122.366	-1.16570
9.33500	122.382	-1.16588
9.33667	122.399	-1.16607
9.33833	122.416	-1.16644
9.34000	122.432	-1.16693
9.34167	122.448	-1.16743
9.34333	122.466	-1.16802
9.34500	122.482	-1.16931
9.34667	122.499	-1.17135
9.34833	122.515	-1.17472
9.35000	122.532	-1.17736
9.35167	122.549	-1.17931
9.35333	122.566	-1.18092
9.35500	122.581	-1.18230
9.35667	122.599	-1.18362
9.35833	122.615	-1.18445
9.36000	122.631	-1.18540
9.36167	122.648	-1.18592
9.36333	122.665	-1.18649
9.36500	122.682	-1.18688
9.36667	122.699	-1.18739
9.36833	122.715	-1.18776
9.37000	122.732	-1.18803
9.37167	122.748	-1.18863
9.37333	122.764	-1.18914
9.37500	122.781	-1.18936
9.37667	122.798	-1.18951
9.37833	122.814	-1.19000
9.38000	122.831	-1.19111
9.38167	122.847	-1.19270
9.38333	122.864	-1.19462
9.38500	122.881	-1.19681
9.38667	122.898	-1.19877
9.38833	122.914	-1.20058
9.39000	122.931	-1.20202
9.39167	122.947	-1.20300
9.39333	122.964	-1.20404
9.39500	122.981	-1.20466
9.39667	122.997	-1.20587
9.39833	123.013	-1.20715
9.40000	123.030	-1.20881
9.40167	123.046	-1.21120
9.40333	123.064	-1.21355
9.40500	123.081	-1.21586
9.40667	123.097	-1.21742
9.40833	123.113	-1.21905
9.41000	123.130	-1.22049
9.41167	123.147	-1.22153
9.41333	123.163	-1.22236
9.41500	123.180	-1.22341
9.41667	123.196	-1.22462
9.41833	123.213	-1.22606
9.42000	123.229	-1.22790
9.42167	123.246	-1.22986
9.42333	123.263	-1.23199
9.42500	123.280	-1.23406
9.42667	123.296	-1.23539
9.42833	123.313	-1.23707
9.43000	123.329	-1.23905
9.43167	123.346	-1.24108
9.43333	123.363	-1.24306
9.43500	123.379	-1.24480
9.43667	123.396	-1.24635
9.43833	123.412	-1.24784
9.44000	123.429	-1.24944
9.44167	123.445	-1.25080
9.44333	123.462	-1.25207
9.44500	123.479	-1.25331
9.44667	123.496	-1.25502
9.44833	123.512	-1.25721
9.45000	123.528	-1.26004
9.45167	123.545	-1.26400
9.45333	123.562	-1.26816
9.45500	123.578	-1.27136
9.45667	123.595	-1.27486
9.45833	123.612	-1.27729
9.46000	123.627	-1.27908
9.46167	123.645	-1.28019
9.46333	123.661	-1.28125
9.46500	123.678	-1.28241
9.46667	123.694	-1.28352
9.46833	123.711	-1.28471
9.47000	123.728	-1.28613
9.47167	123.745	-1.28746
9.47333	123.761	-1.28885
9.47500	123.778	-1.29016
9.47667	123.794	-1.29177
9.47833	123.811	-1.29344
9.48000	123.826	-1.29498
9.48167	123.844	-1.29705
9.48333	123.859	-1.29988
9.48500	123.877	-1.30260
9.48667	123.893	-1.30624
9.48833	123.910	-1.31020
9.49000	123.926	-1.31341
9.49167	123.945	-1.31681
9.49333	123.960	-1.31952
9.49500	123.977	-1.32261
9.49667	123.993	-1.32535
9.49833	124.010	-1.32726
9.50000	124.027	-1.32950
9.50167	124.043	-1.33188
9.50333	124.060	-1.33405
9.50500	124.076	-1.33709
9.50667	124.093	-1.33938
9.50833	124.109	-1.34130
9.51000	124.126	-1.34368
9.51167	124.142	-1.34617
9.51333	124.158	-1.34950
9.51500	124.175	-1.35253
9.51667	124.192	-1.35649
9.51833	124.208	-1.36037
9.52000	124.225	-1.36443
9.52167	124.241	-1.36824
9.52333	124.259	-1.37082
9.52500	124.275	-1.37263
9.52667	124.291	-1.37586
9.52833	124.307	-1.37878
9.53000	124.324	-1.38176
9.53167	124.341	-1.38574
9.53333	124.358	-1.39063
9.53500	124.375	-1.39745
9.53667	124.390	-1.40326
9.53833	124.407	-1.40756
9.54000	124.423	-1.41021
9.54167	124.439	-1.41198
9.54333	124.457	-1.41420
9.54500	124.473	-1.41761
9.54667	124.489	-1.42148
9.54833	124.506	-1.42605
9.55000	124.523	-1.43086
9.55167	124.539	-1.43650
9.55333	124.556	-1.44306
9.55500	124.572	-1.44572
9.55667	124.589	-1.44903
9.55833	124.605	-1.45085
9.56000	124.622	-1.45342
9.56167	124.639	-1.45679
9.56333	124.654	-1.46211
9.56500	124.670	-1.46759
9.56667	124.688	-1.47387
9.56833	124.705	-1.48070
9.57000	124.721	-1.48628
9.57167	124.737	-1.49176
9.57333	124.754	-1.49345
9.57500	124.770	-1.49753
9.57667	124.787	-1.50120
9.57833	124.803	-1.50491
9.58000	124.819	-1.50765
9.58167	124.836	-1.51337
9.58333	124.852	-1.51872
9.58500	124.869	-1.52608
9.58667	124.886	-1.53431
9.58833	124.902	-1.54005
9.59000	124.919	-1.54791
9.59167	124.935	-1.55114
9.59333	124.951	-1.55864
9.59500	124.968	-1.56451
9.59667	124.984	-1.56822
9.59833	125.002	-1.57086
9.60000	125.016	-1.57414
9.60167	125.034	-1.57863
9.60333	125.050	-1.58597
9.60500	125.066	-1.59462
9.60667	125.082	-1.60427
9.60833	125.098	-1.61630
9.61000	125.116	-1.62335
9.61167	125.131	-1.62941
9.61333	125.148	-1.63634
9.61500	125.165	-1.64417
9.61667	125.181	-1.65192
9.61833	125.197	-1.65744
9.62000	125.214	-1.66154
9.62167	125.229	-1.66630
9.62333	125.247	-1.67443
9.62500	125.263	-1.68408
9.62667	125.279	-1.69422
9.62833	125.295	-1.69840
9.63000	125.311	-1.70834
9.63167	125.328	-1.71721
9.63333	125.343	-1.72818
9.63500	125.361	-1.73710
9.63667	125.376	-1.74629
9.63833	125.394	-1.75557
9.64000	125.410	-1.76395
9.64167	125.426	-1.77367
9.64333	125.442	-1.78448
9.64500	125.458	-1.79331
9.64667	125.475	-1.80017
9.64833	125.491	-1.81333
9.65000	125.507	-1.82541
9.65167	125.524	-1.83736
9.65333	125.539	-1.85263
9.65500	125.557	-1.86448
9.65667	125.573	-1.87374
9.65833	125.589	-1.88302
9.66000	125.604	-1.89237
9.66167	125.621	-1.90471
9.66333	125.638	-1.91475
9.66500	125.654	-1.92442
9.66667	125.669	-1.93509
9.66833	125.685	-1.94860
9.67000	125.702	-1.96005
9.67167	125.718	-1.97782
9.67333	125.735	-1.99408
9.67500	125.750	-2.00711
9.67667	125.767	-2.02009
9.67833	125.782	-2.03325
9.68000	125.798	-2.04661
9.68167	125.814	-2.06444
9.68333	125.830	-2.08111
9.68500	125.847	-2.09457
9.68667	125.862	-2.11134
9.68833	125.879	-2.13225
9.69000	125.894	-2.15180
9.69167	125.911	-2.17079
9.69333	125.927	-2.18645
9.69500	125.943	-2.19886
9.69667	125.959	-2.21406
9.69833	125.975	-2.23032
9.70000	125.991	-2.24897
9.70167	126.007	-2.26931
9.70333	126.024	-2.28729
9.70500	126.040	-2.31017
9.70667	126.055	-2.33238
9.70833	126.071	-2.35500
9.71000	126.086	-2.37844
9.71167	126.102	-2.40092
9.71333	126.118	-2.42330
9.71500	126.134	-2.44499
9.71667	126.150	-2.46701
9.71833	126.166	-2.48810
9.72000	126.181	-2.51298
9.72167	126.197	-2.53927
9.72333	126.212	-2.56691
9.72500	126.228	-2.59486
9.72667	126.244	-2.62150
9.72833	126.260	-2.64986
9.73000	126.275	-2.67746
9.73167	126.291	-2.70777
9.73333	126.306	-2.73756
9.73500	126.322	-2.76665
9.73667	126.338	-2.79164
9.73833	126.353	-2.82426
9.74000	126.368	-2.86005
9.74167	126.385	-2.89115
9.74333	126.399	-2.92361
9.74500	126.415	-2.95680
9.74667	126.431	-2.99551
9.74833	126.447	-3.03266
9.75000	126.462	-3.07058
9.75167	126.477	-3.10758
9.75333	126.492	-3.14638
9.75500	126.507	-3.18548
9.75667	126.524	-3.22734
9.75833	126.539	-3.27023
9.76000	126.553	-3.30923
9.76167	126.569	-3.34971
9.76333	126.583	-3.38952
9.76500	126.599	-3.43153
9.76667	126.614	-3.47780
9.76833	126.629	-3.52378
9.77000	126.643	-3.56974
9.77167	126.658	-3.62052
9.77333	126.674	-3.66993
9.77500	126.687	-3.72479
9.77667	126.703	-3.78231
9.77833	126.718	-3.83496
9.78000	126.733	-3.89159
9.78167	126.746	-3.95064
9.78333	126.761	-4.00971
9.78500	126.776	-4.07006
9.78667	126.792	-4.12814
9.78833	126.806	-4.18734
9.79000	126.820	-4.24659
9.79167	126.835	-4.30688
9.79333	126.849	-4.37487
9.79500	126.864	-4.44245
9.79667	126.877	-4.50988
9.79833	126.891	-4.58085
9.80000	126.905	-4.65210
9.80167	126.920	-4.72555
9.80333	126.933	-4.80055
9.80500	126.948	-4.87701
9.80667	126.961	-4.95236
9.80833	126.975	-5.02774
9.81000	126.989	-5.10490
9.81167	127.003	-5.18682
9.81333	127.017	-5.27169
9.81500	127.031	-5.35797
9.81667	127.045	-5.44537
9.81833	127.058	-5.53287
9.82000	127.071	-5.62264
9.82167	127.084	-5.71230
9.82333	127.097	-5.80673
9.82500	127.111	-5.90043
9.82667	127.124	-5.99465
9.82833	127.137	-6.08902
9.83000	127.150	-6.18572
9.83167	127.164	-6.28948
9.83333	127.176	-6.39490
9.83500	127.188	-6.50437
9.83667	127.202	-6.61398
9.83833	127.213	-6.72753
9.84000	127.226	-6.84161
9.84167	127.238	-6.96051
9.84333	127.250	-7.07949
9.84500	127.262	-7.19915
9.84667	127.276	-7.31812
9.84833	127.287	-7.43940
9.85000	127.299	-7.56346
9.85167	127.311	-7.68523
9.85333	127.323	-7.80827
9.85500	127.335	-7.93292
9.85667	127.347	-8.05589
9.85833	127.358	-8.17989
9.86000	127.370	-8.30190
9.86167	127.382	-8.42365
9.86333	127.394	-8.54452
9.86500	127.405	-8.66945
9.86667	127.415	-8.79628
9.86833	127.427	-8.92557
9.87000	127.437	-9.05475
9.87167	127.448	-9.18488
9.87333	127.460	-9.31542
9.87500	127.470	-9.44635
9.87667	127.481	-9.57919
9.87833	127.492	-9.71381
9.88000	127.502	-9.84768
9.88167	127.513	-9.97976
9.88333	127.524	-10.1106
9.88500	127.534	-10.2383
9.88667	127.546	-10.3637
9.88833	127.556	-10.4892
9.89000	127.566	-10.6143
9.89167	127.577	-10.7386
9.89333	127.587	-10.8582
9.89500	127.597	-10.9764
9.89667	127.607	-11.0954
9.89833	127.618	-11.2181
9.90000	127.628	-11.3440
9.90167	127.639	-11.4752
9.90333	127.649	-11.6075
9.90500	127.659	-11.7446
9.90667	127.669	-11.8937
9.90833	127.679	-12.0522
9.91000	127.688	-12.2169
9.91167	127.699	-12.3850
9.91333	127.708	-12.5561
9.91500	127.717	-12.7243
9.91667	127.727	-12.8946
9.91833	127.736	-13.0596
9.92000	127.744	-13.2164
9.92167	127.753	-13.3661
9.92333	127.763	-13.5052
9.92500	127.772	-13.6393
9.92667	127.782	-13.7692
9.92833	127.791	-13.8936
9.93000	127.800	-14.0159
9.93167	127.810	-14.1437
9.93333	127.819	-14.2736
9.93500	127.829	-14.4097
9.93667	127.837	-14.5487
9.93833	127.846	-14.6937
9.94000	127.855	-14.8430
9.94167	127.864	-14.9965
9.94333	127.873	-15.1530
9.94500	127.881	-15.3142
9.94667	127.890	-15.4754
9.94833	127.899	-15.6396
9.95000	127.907	-15.8041
9.95167	127.915	-15.9781
9.95333	127.925	-16.1547
9.95500	127.933	-16.3331
9.95667	127.941	-16.5150
9.95833	127.950	-16.7000
9.96000	127.959	-16.8905
9.96167	127.967	-17.0866
9.96333	127.975	-17.2876
9.96500	127.983	-17.4871
9.96667	127.990	-17.6825
9.96833	127.998	-17.8731
9.97000	128.005	-18.0555
9.97167	128.012	-18.2232
9.97333	128.019	-18.3824
9.97500	128.027	-18.5260
9.97667	128.035	-18.6582
9.97833	128.043	-18.7786
9.98000	128.049	-18.8917
9.98167	128.057	-18.9957
9.98333	128.065	-19.0859
9.98500	128.074	-19.1622
9.98667	128.082	-19.2273
9.98833	128.091	-19.2725
9.99000	128.099	-19.2971
9.99167	128.108	-19.3071
9.99333	128.118	-19.3086
9.99500	128.126	-19.2990
9.99667	128.136	-19.2777
9.99833	128.145	-19.2516
10.0000	128.155	-19.2180
10.0017	128.166	-19.1751
10.0033	128.177	-19.1273
10.0050	128.186	-19.0799
10.0067	128.200	-19.0266
10.0083	128.210	-18.9669
10.0100	128.222	-18.9033
10.0117	128.233	-18.8341
10.0133	128.245	-18.7538
10.0150	128.258	-18.6595
10.0167	128.270	-18.5491
10.0183	128.283	-18.4215
10.0200	128.296	-18.2695
10.0217	128.311	-18.0963
10.0233	128.325	-17.9033
10.0250	128.340	-17.6936
10.0267	128.355	-17.4689
10.0283	128.371	-17.2350
10.0300	128.387	-16.9908
10.0317	128.404	-16.7414
10.0333	128.421	-16.4884
10.0350	128.438	-16.2345
10.0367	128.456	-15.9856
10.0383	128.474	-15.7425
10.0400	128.493	-15.5059
10.0417	128.513	-15.2796
10.0433	128.533	-15.0614
10.0450	128.552	-14.8509
10.0467	128.572	-14.6508
10.0483	128.591	-14.4594
10.0500	128.612	-14.2740
10.0517	128.632	-14.0943
10.0533	128.653	-13.9188
10.0550	128.673	-13.7514
10.0567	128.695	-13.5825
10.0583	128.716	-13.4153
10.0600	128.738	-13.2495
10.0617	128.759	-13.0873
10.0633	128.781	-12.9240
10.0650	128.802	-12.7644
10.0667	128.824	-12.6068
10.0683	128.847	-12.4502
10.0700	128.870	-12.2955
10.0717	128.891	-12.1397
10.0733	128.914	-11.9907
10.0750	128.936	-11.8378
10.0767	128.958	-11.6840
10.0783	128.981	-11.5272
10.0800	129.004	-11.3664
10.0817	129.027	-11.2022
10.0833	129.050	-11.0353
10.0850	129.073	-10.8645
10.0867	129.096	-10.6893
10.0883	129.119	-10.5098
10.0900	129.143	-10.3264
10.0917	129.166	-10.1395
10.0933	129.190	-9.94855
10.0950	129.214	-9.75804
10.0967	129.238	-9.57200
10.0983	129.261	-9.38360
10.1000	129.286	-9.20576
10.1017	129.310	-9.02758
10.1033	129.334	-8.85387
10.1050	129.359	-8.68369
10.1067	129.383	-8.51373
10.1083	129.409	-8.34756
10.1100	129.433	-8.18264
10.1117	129.458	-8.01583
10.1133	129.484	-7.84713
10.1150	129.508	-7.67638
10.1167	129.532	-7.50162
10.1183	129.558	-7.33313
10.1200	129.583	-7.16298
10.1217	129.607	-6.99686
10.1233	129.632	-6.82748
10.1250	129.658	-6.66189
10.1267	129.683	-6.50073
10.1283	129.709	-6.34210
10.1300	129.734	-6.18987
10.1317	129.759	-6.04271
10.1333	129.784	-5.90047
10.1350	129.810	-5.76413
10.1367	129.835	-5.64074
10.1383	129.861	-5.52566
10.1400	129.886	-5.41829
10.1417	129.910	-5.32119
10.1433	129.935	-5.22988
10.1450	129.960	-5.14545
10.1467	129.984	-5.06576
10.1483	130.009	-4.98902
10.1500	130.034	-4.91386
10.1517	130.059	-4.84236
10.1533	130.083	-4.77379
10.1550	130.107	-4.70800
10.1567	130.131	-4.64543
10.1583	130.155	-4.58542
10.1600	130.179	-4.52727
10.1617	130.204	-4.47225
10.1633	130.227	-4.41674
10.1650	130.250	-4.36291
10.1667	130.273	-4.31121
10.1683	130.297	-4.26083
10.1700	130.320	-4.20884
10.1717	130.344	-4.15933
10.1733	130.366	-4.10872
10.1750	130.390	-4.06139
10.1767	130.413	-4.01426
10.1783	130.436	-3.96924
10.1800	130.458	-3.92302
10.1817	130.481	-3.88086
10.1833	130.504	-3.83900
10.1850	130.526	-3.79614
10.1867	130.548	-3.75456
10.1883	130.569	-3.71421
10.1900	130.592	-3.67549
10.1917	130.614	-3.63246
10.1933	130.636	-3.59242
10.1950	130.659	-3.55495
10.1967	130.680	-3.51918
10.1983	130.702	-3.48431
10.2000	130.723	-3.45053
10.2017	130.745	-3.41482
10.2033	130.766	-3.38130
10.2050	130.789	-3.34718
10.2067	130.809	-3.31241
10.2083	130.830	-3.28084
10.2100	130.852	-3.24876
10.2117	130.872	-3.21766
10.2133	130.894	-3.18578
10.2150	130.914	-3.15248
10.2167	130.936	-3.12452
10.2183	130.957	-3.09393
10.2200	130.977	-3.06311
10.2217	130.997	-3.03322
10.2233	131.019	-3.00539
10.2250	131.038	-2.97567
10.2267	131.060	-2.94642
10.2283	131.080	-2.91903
10.2300	131.101	-2.89299
10.2317	131.120	-2.86616
10.2333	131.141	-2.83635
10.2350	131.162	-2.81235
10.2367	131.182	-2.78571
10.2383	131.203	-2.76147
10.2400	131.222	-2.73831
10.2417	131.241	-2.71571
10.2433	131.263	-2.69327
10.2450	131.282	-2.67381
10.2467	131.302	-2.65496
10.2483	131.321	-2.63463
10.2500	131.341	-2.61268
10.2517	131.361	-2.58834
10.2533	131.380	-2.56785
10.2550	131.400	-2.54604
10.2567	131.420	-2.52371
10.2583	131.439	-2.50151
10.2600	131.458	-2.48048
10.2617	131.479	-2.45964
10.2633	131.498	-2.43930
10.2650	131.517	-2.41972
10.2667	131.537	-2.40020
10.2683	131.555	-2.38143
10.2700	131.575	-2.36421
10.2717	131.594	-2.34714
10.2733	131.612	-2.33469
10.2750	131.631	-2.31649
10.2767	131.650	-2.29824
10.2783	131.670	-2.28236
10.2800	131.689	-2.26861
10.2817	131.708	-2.25776
10.2833	131.727	-2.24256
10.2850	131.745	-2.22544
10.2867	131.765	-2.20992
10.2883	131.783	-2.19385
10.2900	131.803	-2.17820
10.2917	131.822	-2.16681
10.2933	131.840	-2.15002
10.2950	131.858	-2.13109
10.2967	131.877	-2.11501
10.2983	131.896	-2.10098
10.3000	131.914	-2.08982
10.3017	131.933	-2.07693
10.3033	131.950	-2.06479
10.3050	131.969	-2.04803
10.3067	131.988	-2.03466
10.3083	132.006	-2.01984
10.3100	132.025	-2.00903
10.3117	132.044	-1.99874
10.3133	132.062	-1.98834
10.3150	132.080	-1.97661
10.3167	132.099	-1.96360
10.3183	132.117	-1.95180
10.3200	132.135	-1.94138
10.3217	132.154	-1.93218
10.3233	132.172	-1.92089
10.3250	132.190	-1.90868
10.3267	132.207	-1.89724
10.3283	132.226	-1.88451
10.3300	132.244	-1.87484
10.3317	132.263	-1.86905
10.3333	132.280	-1.86023
10.3350	132.299	-1.84945
10.3367	132.316	-1.84241
10.3383	132.333	-1.83560
10.3400	132.352	-1.82753
10.3417	132.370	-1.81711
10.3433	132.389	-1.80863
10.3450	132.406	-1.80023
10.3467	132.424	-1.78935
10.3483	132.441	-1.77777
10.3500	132.460	-1.77002
10.3517	132.478	-1.76188
10.3533	132.496	-1.75293
10.3550	132.514	-1.74724
10.3567	132.531	-1.74193
10.3583	132.549	-1.73352
10.3600	132.566	-1.72297
10.3617	132.584	-1.71551
10.3633	132.603	-1.70716
10.3650	132.620	-1.69898
10.3667	132.637	-1.69436
10.3683	132.654	-1.68756
10.3700	132.673	-1.68039
10.3717	132.690	-1.67220
10.3733	132.708	-1.66866
10.3750	132.726	-1.66173
10.3767	132.744	-1.65731
10.3783	132.761	-1.65222
10.3800	132.779	-1.64338
10.3817	132.796	-1.63486
10.3833	132.813	-1.62793
10.3850	132.831	-1.62210
10.3867	132.849	-1.61821
10.3883	132.867	-1.61030
10.3900	132.884	-1.60399
10.3917	132.901	-1.60100
10.3933	132.917	-1.59541
10.3950	132.935	-1.59441
10.3967	132.953	-1.59236
10.3983	132.970	-1.58699
10.4000	132.988	-1.57973
10.4017	133.004	-1.57208
10.4033	133.022	-1.56520
10.4050	133.041	-1.55916
10.4067	133.057	-1.55294
10.4083	133.075	-1.54606
10.4100	133.092	-1.54192
10.4117	133.110	-1.54026
10.4133	133.126	-1.53653
10.4150	133.144	-1.53419
10.4167	133.162	-1.53176
10.4183	133.178	-1.52925
10.4200	133.196	-1.52366
10.4217	133.213	-1.52006
10.4233	133.231	-1.51460
10.4250	133.247	-1.50873
10.4267	133.265	-1.50514
10.4283	133.283	-1.50043
10.4300	133.301	-1.49764
10.4317	133.317	-1.49318
10.4333	133.334	-1.49152
10.4350	133.351	-1.49152
10.4367	133.370	-1.48896
10.4383	133.385	-1.48615
10.4400	133.403	-1.48428
10.4417	133.420	-1.48208
10.4433	133.438	-1.47651
10.4450	133.455	-1.47369
10.4467	133.472	-1.46826
10.4483	133.489	-1.46175
10.4500	133.507	-1.45742
10.4517	133.524	-1.45333
10.4533	133.541	-1.45011
10.4550	133.557	-1.44773
10.4567	133.575	-1.44450
10.4583	133.592	-1.44130
10.4600	133.609	-1.43907
10.4617	133.625	-1.43648
10.4633	133.643	-1.43411
10.4650	133.660	-1.43402
10.4667	133.678	-1.43115
10.4683	133.695	-1.42786
10.4700	133.711	-1.42396
10.4717	133.729	-1.42055
10.4733	133.746	-1.41702
10.4750	133.763	-1.41307
10.4767	133.780	-1.40855
10.4783	133.797	-1.40576
10.4800	133.813	-1.40359
10.4817	133.830	-1.40330
10.4833	133.848	-1.40367
10.4850	133.865	-1.40221
10.4867	133.882	-1.40163
10.4883	133.899	-1.40133
10.4900	133.915	-1.40128
10.4917	133.933	-1.40119
10.4933	133.950	-1.40109
10.4950	133.967	-1.40008
10.4967	133.984	-1.39797
10.4983	134.001	-1.39547
10.5000	134.018	-1.39274
10.5017	134.034	-1.39074
10.5033	134.052	-1.38736
10.5050	134.069	-1.38388
10.5067	134.085	-1.38101
10.5083	134.103	-1.37822
10.5100	134.119	-1.37687
10.5117	134.136	-1.37627
10.5133	134.154	-1.37591
10.5150	134.171	-1.37576
10.5167	134.186	-1.37485
10.5183	134.203	-1.37358
10.5200	134.220	-1.37269
10.5217	134.238	-1.37089
10.5233	134.254	-1.36974
10.5250	134.271	-1.36884
10.5267	134.288	-1.36770
10.5283	134.305	-1.36598
10.5300	134.321	-1.36452
10.5317	134.339	-1.36285
10.5333	134.356	-1.36122
10.5350	134.373	-1.35993
10.5367	134.390	-1.35853
10.5383	134.407	-1.35743
10.5400	134.422	-1.35600
10.5417	134.440	-1.35474
10.5433	134.458	-1.35344
10.5450	134.474	-1.35263
10.5467	134.490	-1.35214
10.5483	134.507	-1.35187
10.5500	134.525	-1.35155
10.5517	134.542	-1.35063
10.5533	134.558	-1.35012
10.5550	134.575	-1.34964
10.5567	134.592	-1.34900
10.5583	134.608	-1.34799
10.5600	134.626	-1.34631
10.5617	134.642	-1.34391
10.5633	134.659	-1.34166
10.5650	134.676	-1.33985
10.5667	134.692	-1.33806
10.5683	134.709	-1.33685
10.5700	134.726	-1.33572
10.5717	134.743	-1.33474
10.5733	134.759	-1.33427
10.5750	134.777	-1.33396
10.5767	134.794	-1.33342
10.5783	134.810	-1.33285
10.5800	134.827	-1.33245
10.5817	134.844	-1.33207
10.5833	134.861	-1.33174
10.5850	134.877	-1.33105
10.5867	134.895	-1.33046
10.5883	134.911	-1.32974
10.5900	134.928	-1.32883
10.5917	134.945	-1.32841
10.5933	134.961	-1.32805
10.5950	134.978	-1.32777
10.5967	134.995	-1.32732
10.5983	135.012	-1.32696
10.6000	135.029	-1.32675
10.6017	135.045	-1.32657
10.6033	135.062	-1.32632
10.6050	135.080	-1.32599
10.6067	135.095	-1.32564
10.6083	135.112	-1.32527
10.6100	135.129	-1.32470
10.6117	135.146	-1.32420
10.6133	135.163	-1.32362
10.6150	135.178	-1.32313
10.6167	135.196	-1.32262
10.6183	135.213	-1.32217
10.6200	135.231	-1.32190
10.6217	135.247	-1.32169
10.6233	135.263	-1.32162
10.6250	135.280	-1.32152
10.6267	135.297	-1.32086
10.6283	135.313	-1.32073
10.6300	135.330	-1.32022
10.6317	135.346	-1.31977
10.6333	135.363	-1.31942
10.6350	135.380	-1.31906
10.6367	135.397	-1.31887
10.6383	135.413	-1.31874
10.6400	135.430	-1.31864
10.6417	135.447	-1.31804
10.6433	135.464	-1.31759
10.6450	135.481	-1.31715
10.6467	135.498	-1.31702
10.6483	135.514	-1.31673
10.6500	135.532	-1.31636
10.6517	135.548	-1.31589
10.6533	135.565	-1.31517
10.6550	135.581	-1.31453
10.6567	135.597	-1.31371
10.6583	135.614	-1.31290
10.6600	135.631	-1.31259
10.6617	135.647	-1.31244
10.6633	135.664	-1.31232
10.6650	135.681	-1.31225
10.6667	135.698	-1.31166
10.6683	135.715	-1.31130
10.6700	135.732	-1.31124
10.6717	135.748	-1.31117
10.6733	135.765	-1.31091
10.6750	135.781	-1.31084
10.6767	135.798	-1.31076
10.6783	135.815	-1.31070
10.6800	135.831	-1.31038
10.6817	135.848	-1.31030
10.6833	135.866	-1.31004
10.6850	135.882	-1.30999
10.6867	135.898	-1.30974
10.6883	135.915	-1.30968
10.6900	135.932	-1.30948
10.6917	135.948	-1.30929
10.6933	135.966	-1.30922
10.6950	135.982	-1.30915
10.6967	135.999	-1.30909
10.6983	136.016	-1.30900
10.7000	136.032	-1.30890
10.7017	136.049	-1.30885
10.7033	136.065	-1.30878
10.7050	136.082	-1.30873
10.7067	136.100	-1.30868
10.7083	136.117	-1.30863
10.7100	136.134	-1.30856
10.7117	136.150	-1.30850
10.7133	136.167	-1.30844
10.7150	136.183	-1.30836
10.7167	136.199	-1.30830
10.7183	136.216	-1.30825
10.7200	136.234	-1.30819
10.7217	136.250	-1.30813
10.7233	136.267	-1.30808
10.7250	136.284	-1.30802
10.7267	136.300	-1.30793
10.7283	136.317	-1.30784
10.7300	136.333	-1.30775
10.7317	136.350	-1.30765
10.7333	136.368	-1.30748
10.7350	136.383	-1.30730
10.7367	136.399	-1.30719
10.7383	136.418	-1.30709
10.7400	136.434	-1.30701
10.7417	136.451	-1.30696
10.7433	136.467	-1.30691
10.7450	136.484	-1.30688
10.7467	136.501	-1.30683
10.7483	136.517	-1.30680
10.7500	136.533	-1.30676
10.7517	136.550	-1.30670
10.7533	136.567	-1.30662
10.7550	136.584	-1.30651
10.7567	136.601	-1.30635
10.7583	136.618	-1.30622
10.7600	136.634	-1.30612
10.7617	136.650	-1.30603
10.7633	136.667	-1.30596
10.7650	136.684	-1.30590
10.7667	136.701	-1.30585
10.7683	136.717	-1.30578
10.7700	136.733	-1.30571
10.7717	136.751	-1.30564
10.7733	136.767	-1.30557
10.7750	136.784	-1.30549
10.7767	136.801	-1.30541
10.7783	136.818	-1.30535
10.7800	136.835	-1.30530
10.7817	136.851	-1.30527
10.7833	136.867	-1.30525
10.7850	136.884	-1.30523
10.7867	136.901	-1.30521
10.7883	136.918	-1.30517
10.7900	136.934	-1.30512
10.7917	136.950	-1.30506
10.7933	136.968	-1.30498
10.7950	136.984	-1.30490
10.7967	137.001	-1.30484
10.7983	137.019	-1.30478
10.8000	137.034	-1.30473
10.8017	137.051	-1.30466
10.8033	137.068	-1.30459
10.8050	137.084	-1.30451
10.8067	137.101	-1.30440
10.8083	137.117	-1.30404
10.8100	137.134	-1.30355
10.8117	137.150	-1.30304
10.8133	137.167	-1.30261
10.8150	137.184	-1.30248
10.8167	137.201	-1.30237
10.8183	137.217	-1.30230
10.8200	137.234	-1.30227
10.8217	137.251	-1.30227
10.8233	137.267	-1.30228
10.8250	137.285	-1.30229
10.8267	137.301	-1.30229
10.8283	137.317	-1.30228
10.8300	137.334	-1.30225
10.8317	137.351	-1.30223
10.8333	137.368	-1.30220
10.8350	137.385	-1.30215
10.8367	137.401	-1.30209
10.8383	137.417	-1.30202
10.8400	137.434	-1.30194
10.8417	137.451	-1.30187
10.8433	137.468	-1.30182
10.8450	137.483	-1.30177
10.8467	137.500	-1.30173
10.8483	137.517	-1.30170
10.8500	137.534	-1.30166
10.8517	137.550	-1.30162
10.8533	137.567	-1.30160
10.8550	137.584	-1.30157
10.8567	137.601	-1.30154
10.8583	137.618	-1.30150
10.8600	137.635	-1.30145
10.8617	137.651	-1.30143
10.8633	137.668	-1.30143
10.8650	137.685	-1.30143
10.8667	137.702	-1.30143
10.8683	137.720	-1.30142
10.8700	137.737	-1.30143
10.8717	137.753	-1.30143
10.8733	137.769	-1.30143
10.8750	137.785	-1.30145
10.8767	137.802	-1.30145
10.8783	137.819	-1.30143
10.8800	137.836	-1.30142
10.8817	137.852	-1.30140
10.8833	137.868	-1.30137
10.8850	137.885	-1.30131
10.8867	137.901	-1.30126
10.8883	137.918	-1.30122
10.8900	137.934	
10.8917	137.950	
10.8933	137.966	
10.8950	137.984	
10.8967	138.001	
10.8983	138.018	
10.9000	138.034	
10.9017	138.051	
10.9033	138.068	
10.9050	138.084	
10.9067	138.101	
10.9083	138.118	
10.9100	138.135	
10.9117	138.153	
10.9133	138.168	
10.9150	138.185	
10.9167	138.202	
10.9183	138.218	
10.9200	138.235	
10.9217	138.252	
10.9233	138.268	
10.9250	138.285	
10.9267	138.302	
10.9283	138.318	
10.9300	138.335	
10.9317	138.352	
10.9333	138.369	
10.9350	138.384	
10.9367	138.402	
10.9383	138.418	
10.9400		
10.9417		
10.9433		
10.9450		
10.9467		

