Filename	3-nitrobenzoic acid
Instrument name	DSC2A-00807 (172.23.165.2)
Operator	
rundate	5/21/2019
Sample name	3-nitrobenzoic acid
proceduresegments	Ramp 10 °C/min to 160.00 °C
[step]
Ramp 10 °C/min to 160.00 °C
Time	Temperature	Heat Flow (Normalized)
min	°C	W/g
0.00000		
1.66667e-3		
3.33333e-3		
5.00000e-3		
6.66667e-3		
8.33333e-3	29.581	
0.0100000	29.584	
0.0116667	29.588	
0.0133333	29.591	
0.0150000	29.594	
0.0166667	29.597	
0.0183333	29.601	
0.0200000	29.604	
0.0216667	29.608	
0.0233333	29.611	
0.0250000	29.614	
0.0266667	29.617	
0.0283333	29.621	
0.0300000	29.624	
0.0316667	29.627	
0.0333333	29.630	
0.0350000	29.633	
0.0366667	29.637	
0.0383333	29.640	
0.0400000	29.644	
0.0416667	29.647	
0.0433333	29.651	
0.0450000	29.655	
0.0466667	29.659	
0.0483333	29.662	
0.0500000	29.667	
0.0516667	29.671	
0.0533333	29.675	
0.0550000	29.680	
0.0566667	29.685	
0.0583333	29.690	-0.286835
0.0600000	29.696	-0.286402
0.0616667	29.702	-0.282865
0.0633333	29.706	-0.275727
0.0650000	29.711	-0.271876
0.0666667	29.718	-0.268268
0.0683333	29.724	-0.264741
0.0700000	29.731	-0.260753
0.0716667	29.737	-0.256970
0.0733333	29.744	-0.253091
0.0750000	29.751	-0.249039
0.0766667	29.759	-0.245231
0.0783333	29.767	-0.241540
0.0800000	29.774	-0.237778
0.0816667	29.782	-0.234065
0.0833333	29.791	-0.230394
0.0850000	29.800	-0.226695
0.0866667	29.809	-0.223099
0.0883333	29.817	-0.219378
0.0900000	29.827	-0.215717
0.0916667	29.837	-0.212023
0.0933333	29.847	-0.208264
0.0950000	29.856	-0.204919
0.0966667	29.866	-0.201307
0.0983333	29.876	-0.197862
0.100000	29.887	-0.194948
0.101667	29.898	-0.191641
0.103333	29.909	-0.188671
0.105000	29.920	-0.185575
0.106667	29.930	-0.182559
0.108333	29.942	-0.179365
0.110000	29.953	-0.176271
0.111667	29.965	-0.173279
0.113333	29.977	-0.170511
0.115000	29.989	-0.167752
0.116667	30.001	-0.164917
0.118333	30.012	-0.162293
0.120000	30.025	-0.159641
0.121667	30.038	-0.157092
0.123333	30.050	-0.154415
0.125000	30.063	-0.151890
0.126667	30.075	-0.149483
0.128333	30.088	-0.147024
0.130000	30.101	-0.144521
0.131667	30.113	-0.142428
0.133333	30.127	-0.140483
0.135000	30.141	-0.138723
0.136667	30.153	-0.136825
0.138333	30.167	-0.135069
0.140000	30.180	-0.133338
0.141667	30.193	-0.131509
0.143333	30.207	-0.129634
0.145000	30.221	-0.128119
0.146667	30.236	-0.126490
0.148333	30.249	-0.124701
0.150000	30.262	-0.123008
0.151667	30.275	-0.121543
0.153333	30.290	-0.119999
0.155000	30.303	-0.118899
0.156667	30.317	-0.117957
0.158333	30.331	-0.116968
0.160000	30.345	-0.115972
0.161667	30.358	-0.115129
0.163333	30.372	-0.114333
0.165000	30.386	-0.113662
0.166667	30.400	-0.112707
0.168333	30.413	-0.111806
0.170000	30.427	-0.110654
0.171667	30.441	-0.109721
0.173333	30.455	-0.108972
0.175000	30.468	-0.108487
0.176667	30.483	-0.107842
0.178333	30.497	-0.107321
0.180000	30.510	-0.106763
0.181667	30.525	-0.106356
0.183333	30.539	-0.106145
0.185000	30.553	-0.106037
0.186667	30.566	-0.105575
0.188333	30.581	-0.104924
0.190000	30.595	-0.104502
0.191667	30.609	-0.104123
0.193333	30.623	-0.103704
0.195000	30.637	-0.103041
0.196667	30.651	-0.102885
0.198333	30.665	-0.102826
0.200000	30.679	-0.102465
0.201667	30.694	-0.101982
0.203333	30.709	-0.101966
0.205000	30.722	-0.101892
0.206667	30.736	-0.101802
0.208333	30.752	-0.101784
0.210000	30.766	-0.101842
0.211667	30.780	-0.101877
0.213333	30.795	-0.101406
0.215000	30.809	-0.101335
0.216667	30.822	-0.101322
0.218333	30.837	-0.101257
0.220000	30.850	-0.101216
0.221667	30.865	-0.100984
0.223333	30.879	-0.100959
0.225000	30.893	-0.100900
0.226667	30.908	-0.100800
0.228333	30.923	-0.100766
0.230000	30.938	-0.100733
0.231667	30.951	-0.100762
0.233333	30.966	-0.100793
0.235000	30.981	-0.100788
0.236667	30.996	-0.100758
0.238333	31.010	-0.100825
0.240000	31.025	-0.100806
0.241667	31.039	-0.100798
0.243333	31.054	-0.100831
0.245000	31.069	-0.100872
0.246667	31.084	-0.100934
0.248333	31.099	-0.100984
0.250000	31.112	-0.101393
0.251667	31.128	-0.101366
0.253333	31.143	-0.101656
0.255000	31.157	-0.101802
0.256667	31.171	-0.101865
0.258333	31.187	-0.101812
0.260000	31.201	-0.102172
0.261667	31.216	-0.102262
0.263333	31.230	-0.102450
0.265000	31.246	-0.102854
0.266667	31.260	-0.102843
0.268333	31.276	-0.103089
0.270000	31.290	-0.103257
0.271667	31.305	-0.103504
0.273333	31.320	-0.103765
0.275000	31.335	-0.103819
0.276667	31.351	-0.103908
0.278333	31.366	-0.103982
0.280000	31.381	-0.104093
0.281667	31.396	-0.104288
0.283333	31.411	-0.104506
0.285000	31.426	-0.104759
0.286667	31.442	-0.104953
0.288333	31.457	-0.105233
0.290000	31.471	-0.105615
0.291667	31.487	-0.106030
0.293333	31.502	-0.106403
0.295000	31.518	-0.106718
0.296667	31.533	-0.106933
0.298333	31.549	-0.107161
0.300000	31.562	-0.107357
0.301667	31.579	-0.107581
0.303333	31.595	-0.107642
0.305000	31.610	-0.107704
0.306667	31.626	-0.107762
0.308333	31.640	-0.107846
0.310000	31.656	-0.107973
0.311667	31.671	-0.108222
0.313333	31.687	-0.108493
0.315000	31.703	-0.108775
0.316667	31.717	-0.109169
0.318333	31.732	-0.109550
0.320000	31.748	-0.109984
0.321667	31.763	-0.110336
0.323333	31.779	-0.110724
0.325000	31.794	-0.111136
0.326667	31.810	-0.111502
0.328333	31.825	-0.111892
0.330000	31.841	-0.112321
0.331667	31.857	-0.112620
0.333333	31.873	-0.112897
0.335000	31.887	-0.113068
0.336667	31.904	-0.113201
0.338333	31.918	-0.113339
0.340000	31.935	-0.113578
0.341667	31.950	-0.113803
0.343333	31.965	-0.114065
0.345000	31.981	-0.114435
0.346667	31.998	-0.114836
0.348333	32.012	-0.115283
0.350000	32.027	-0.115767
0.351667	32.043	-0.116159
0.353333	32.059	-0.116368
0.355000	32.076	-0.116478
0.356667	32.091	-0.116610
0.358333	32.106	-0.116820
0.360000	32.123	-0.117124
0.361667	32.138	-0.117423
0.363333	32.153	-0.117759
0.365000	32.169	-0.117985
0.366667	32.185	-0.118200
0.368333	32.200	-0.118514
0.370000	32.215	-0.118923
0.371667	32.231	-0.119355
0.373333	32.246	-0.119749
0.375000	32.262	-0.120144
0.376667	32.278	-0.120488
0.378333	32.294	-0.120813
0.380000	32.310	-0.121286
0.381667	32.325	-0.121724
0.383333	32.340	-0.121959
0.385000	32.358	-0.122233
0.386667	32.373	-0.122534
0.388333	32.389	-0.123030
0.390000	32.404	-0.123445
0.391667	32.419	-0.123724
0.393333	32.436	-0.124004
0.395000	32.452	-0.124283
0.396667	32.468	-0.124509
0.398333	32.484	-0.124710
0.400000	32.500	-0.124967
0.401667	32.517	-0.125126
0.403333	32.532	-0.125272
0.405000	32.548	-0.125435
0.406667	32.565	-0.125708
0.408333	32.580	-0.126067
0.410000	32.596	-0.126360
0.411667	32.610	-0.126710
0.413333	32.627	-0.127099
0.415000	32.643	-0.127475
0.416667	32.659	-0.127662
0.418333	32.675	-0.127966
0.420000	32.690	-0.128185
0.421667	32.706	-0.128324
0.423333	32.724	-0.128389
0.425000	32.738	-0.128465
0.426667	32.755	-0.128597
0.428333	32.770	-0.128818
0.430000	32.786	-0.128977
0.431667	32.802	-0.129139
0.433333	32.819	-0.129467
0.435000	32.834	-0.129729
0.436667	32.850	-0.130072
0.438333	32.866	-0.130425
0.440000	32.882	-0.130602
0.441667	32.898	-0.130716
0.443333	32.915	-0.130953
0.445000	32.931	-0.131271
0.446667	32.947	-0.131548
0.448333	32.962	-0.131775
0.450000	32.979	-0.131936
0.451667	32.996	-0.132163
0.453333	33.012	-0.132455
0.455000	33.027	-0.132772
0.456667	33.044	-0.132967
0.458333	33.059	-0.133042
0.460000	33.075	-0.133087
0.461667	33.091	-0.133132
0.463333	33.107	-0.133269
0.465000	33.122	-0.133442
0.466667	33.139	-0.133706
0.468333	33.154	-0.133911
0.470000	33.171	-0.134081
0.471667	33.187	-0.134274
0.473333	33.204	-0.134440
0.475000	33.221	-0.134641
0.476667	33.237	-0.134944
0.478333	33.253	-0.135171
0.480000	33.269	-0.135381
0.481667	33.285	-0.135642
0.483333	33.302	-0.135966
0.485000	33.317	-0.136329
0.486667	33.334	-0.136639
0.488333	33.348	-0.136794
0.490000	33.365	-0.136920
0.491667	33.381	-0.137018
0.493333	33.398	-0.137081
0.495000	33.413	-0.137130
0.496667	33.430	-0.137172
0.498333	33.446	-0.137188
0.500000	33.462	-0.137229
0.501667	33.479	-0.137309
0.503333	33.494	-0.137414
0.505000	33.511	-0.137604
0.506667	33.527	-0.137813
0.508333	33.545	-0.138093
0.510000	33.560	-0.138394
0.511667	33.576	-0.138608
0.513333	33.592	-0.138769
0.515000	33.609	-0.138929
0.516667	33.625	-0.139020
0.518333	33.640	-0.139147
0.520000	33.657	-0.139261
0.521667	33.672	-0.139398
0.523333	33.690	-0.139609
0.525000	33.707	-0.139919
0.526667	33.722	-0.140147
0.528333	33.738	-0.140339
0.530000	33.754	-0.140600
0.531667	33.771	-0.140853
0.533333	33.787	-0.141030
0.535000	33.803	-0.141096
0.536667	33.819	-0.141162
0.538333	33.836	-0.141208
0.540000	33.852	-0.141257
0.541667	33.869	-0.141335
0.543333	33.884	-0.141473
0.545000	33.901	-0.141632
0.546667	33.917	-0.141903
0.548333	33.933	-0.142378
0.550000	33.948	-0.142867
0.551667	33.966	-0.143316
0.553333	33.981	-0.143604
0.555000	33.998	-0.143798
0.556667	34.015	-0.143911
0.558333	34.032	-0.143964
0.560000	34.047	-0.143977
0.561667	34.064	-0.144016
0.563333	34.079	-0.144062
0.565000	34.096	-0.144153
0.566667	34.112	-0.144301
0.568333	34.128	-0.144442
0.570000	34.144	-0.144552
0.571667	34.160	-0.144631
0.573333	34.177	-0.144715
0.575000	34.195	-0.144821
0.576667	34.211	-0.144883
0.578333	34.227	-0.144909
0.580000	34.243	-0.144940
0.581667	34.259	-0.144965
0.583333	34.275	-0.144999
0.585000	34.291	-0.145041
0.586667	34.309	-0.145097
0.588333	34.325	-0.145158
0.590000	34.341	-0.145210
0.591667	34.358	-0.145231
0.593333	34.373	-0.145261
0.595000	34.390	-0.145302
0.596667	34.406	-0.145352
0.598333	34.423	-0.145396
0.600000	34.440	-0.145429
0.601667	34.456	-0.145486
0.603333	34.473	-0.145540
0.605000	34.489	-0.145689
0.606667	34.506	-0.145874
0.608333	34.521	-0.146103
0.610000	34.537	-0.146285
0.611667	34.553	-0.146388
0.613333	34.570	-0.146444
0.615000	34.587	-0.146513
0.616667	34.603	-0.146567
0.618333	34.620	-0.146605
0.620000	34.636	-0.146674
0.621667	34.652	-0.146717
0.623333	34.668	-0.146792
0.625000	34.685	-0.146837
0.626667	34.701	-0.146870
0.628333	34.717	-0.146916
0.630000	34.733	-0.146929
0.631667	34.749	-0.146963
0.633333	34.766	-0.146979
0.635000	34.782	-0.146984
0.636667	34.799	-0.146990
0.638333	34.815	-0.147015
0.640000	34.833	-0.147058
0.641667	34.848	-0.147151
0.643333	34.865	-0.147206
0.645000	34.882	-0.147242
0.646667	34.898	-0.147310
0.648333	34.915	-0.147357
0.650000	34.930	-0.147384
0.651667	34.947	-0.147392
0.653333	34.963	-0.147415
0.655000	34.980	-0.147426
0.656667	34.996	-0.147440
0.658333	35.012	-0.147447
0.660000	35.029	-0.147463
0.661667	35.044	-0.147482
0.663333	35.061	-0.147501
0.665000	35.078	-0.147549
0.666667	35.094	-0.147613
0.668333	35.110	-0.147693
0.670000	35.127	-0.147763
0.671667	35.143	-0.147800
0.673333	35.161	-0.147850
0.675000	35.176	-0.147878
0.676667	35.192	-0.147893
0.678333	35.208	-0.147913
0.680000	35.225	-0.147925
0.681667	35.241	-0.147940
0.683333	35.257	-0.147951
0.685000	35.274	-0.147962
0.686667	35.291	-0.147981
0.688333	35.307	-0.147996
0.690000	35.324	-0.148008
0.691667	35.341	-0.148019
0.693333	35.357	-0.148045
0.695000	35.373	-0.148058
0.696667	35.389	-0.148080
0.698333	35.406	-0.148094
0.700000	35.423	-0.148109
0.701667	35.439	-0.148117
0.703333	35.454	-0.148128
0.705000	35.471	-0.148144
0.706667	35.487	-0.148153
0.708333	35.504	-0.148162
0.710000	35.520	-0.148173
0.711667	35.536	-0.148196
0.713333	35.553	-0.148223
0.715000	35.571	-0.148247
0.716667	35.586	-0.148272
0.718333	35.603	-0.148295
0.720000	35.620	-0.148313
0.721667	35.637	-0.148327
0.723333	35.652	-0.148339
0.725000	35.668	-0.148353
0.726667	35.685	-0.148362
0.728333	35.701	-0.148369
0.730000	35.717	-0.148375
0.731667	35.733	-0.148381
0.733333	35.751	-0.148387
0.735000	35.766	-0.148396
0.736667	35.784	-0.148407
0.738333	35.800	-0.148421
0.740000	35.817	-0.148441
0.741667	35.833	-0.148462
0.743333	35.850	-0.148485
0.745000	35.866	-0.148499
0.746667	35.883	-0.148510
0.748333	35.900	-0.148518
0.750000	35.916	-0.148522
0.751667	35.932	-0.148525
0.753333	35.949	-0.148529
0.755000	35.964	-0.148534
0.756667	35.982	-0.148540
0.758333	35.997	-0.148550
0.760000	36.015	-0.148561
0.761667	36.031	-0.148571
0.763333	36.047	-0.148582
0.765000	36.064	-0.148589
0.766667	36.081	-0.148597
0.768333	36.098	-0.148605
0.770000	36.113	-0.148613
0.771667	36.130	-0.148620
0.773333	36.146	-0.148624
0.775000	36.162	-0.148626
0.776667	36.180	-0.148628
0.778333	36.196	-0.148629
0.780000	36.212	-0.148627
0.781667	36.229	-0.148622
0.783333	36.246	-0.148606
0.785000	36.261	-0.148584
0.786667	36.278	-0.148563
0.788333	36.294	-0.148554
0.790000	36.311	-0.148552
0.791667	36.327	-0.148551
0.793333	36.344	-0.148551
0.795000	36.360	-0.148552
0.796667	36.377	-0.148553
0.798333	36.392	-0.148554
0.800000	36.411	-0.148553
0.801667	36.426	-0.148551
0.803333	36.443	-0.148547
0.805000	36.460	-0.148534
0.806667	36.476	-0.148521
0.808333	36.493	-0.148474
0.810000	36.509	-0.148419
0.811667	36.525	-0.148352
0.813333	36.542	-0.148268
0.815000	36.558	-0.148168
0.816667	36.575	-0.148072
0.818333	36.591	-0.147925
0.820000	36.608	-0.147755
0.821667	36.624	-0.147652
0.823333	36.642	-0.147489
0.825000	36.658	-0.147399
0.826667	36.675	-0.147299
0.828333	36.691	-0.147191
0.830000	36.707	-0.147123
0.831667	36.724	-0.147063
0.833333	36.741	-0.146991
0.835000	36.757	-0.146895
0.836667	36.774	-0.146774
0.838333	36.791	-0.146641
0.840000	36.807	-0.146539
0.841667	36.823	-0.146385
0.843333	36.840	-0.146283
0.845000	36.857	-0.146178
0.846667	36.874	-0.146103
0.848333	36.890	-0.146032
0.850000	36.906	-0.145984
0.851667	36.923	-0.145944
0.853333	36.939	-0.145876
0.855000	36.956	-0.145780
0.856667	36.972	-0.145676
0.858333	36.988	-0.145563
0.860000	37.004	-0.145431
0.861667	37.021	-0.145286
0.863333	37.037	-0.145129
0.865000	37.054	-0.144951
0.866667	37.072	-0.144771
0.868333	37.088	-0.144627
0.870000	37.104	-0.144539
0.871667	37.121	-0.144432
0.873333	37.138	-0.144301
0.875000	37.154	-0.144161
0.876667	37.171	-0.144016
0.878333	37.188	-0.143840
0.880000	37.205	-0.143677
0.881667	37.222	-0.143516
0.883333	37.238	-0.143298
0.885000	37.255	-0.143022
0.886667	37.271	-0.142721
0.888333	37.287	-0.142525
0.890000	37.304	-0.142345
0.891667	37.320	-0.142211
0.893333	37.337	-0.142086
0.895000	37.353	-0.141997
0.896667	37.371	-0.141921
0.898333	37.387	-0.141866
0.900000	37.404	-0.141790
0.901667	37.420	-0.141680
0.903333	37.437	-0.141570
0.905000	37.452	-0.141400
0.906667	37.471	-0.141251
0.908333	37.488	-0.141053
0.910000	37.503	-0.140851
0.911667	37.520	-0.140601
0.913333	37.536	-0.140402
0.915000	37.553	-0.140194
0.916667	37.570	-0.139992
0.918333	37.586	-0.139743
0.920000	37.603	-0.139469
0.921667	37.619	-0.139260
0.923333	37.636	-0.139075
0.925000	37.654	-0.138936
0.926667	37.670	-0.138839
0.928333	37.686	-0.138752
0.930000	37.703	-0.138668
0.931667	37.720	-0.138595
0.933333	37.737	-0.138507
0.935000	37.753	-0.138349
0.936667	37.770	-0.138154
0.938333	37.787	-0.137905
0.940000	37.803	-0.137493
0.941667	37.820	-0.137004
0.943333	37.836	-0.136497
0.945000	37.853	-0.136207
0.946667	37.870	-0.135961
0.948333	37.887	-0.135769
0.950000	37.903	-0.135648
0.951667	37.920	-0.135529
0.953333	37.936	-0.135443
0.955000	37.953	-0.135374
0.956667	37.970	-0.135334
0.958333	37.986	-0.135278
0.960000	38.004	-0.135168
0.961667	38.021	-0.135042
0.963333	38.037	-0.134960
0.965000	38.053	-0.134843
0.966667	38.069	-0.134715
0.968333	38.087	-0.134606
0.970000	38.104	-0.134462
0.971667	38.121	-0.134279
0.973333	38.137	-0.134114
0.975000	38.154	-0.133989
0.976667	38.170	-0.133854
0.978333	38.187	-0.133693
0.980000	38.203	-0.133472
0.981667	38.220	-0.133327
0.983333	38.236	-0.133200
0.985000	38.253	-0.133048
0.986667	38.271	-0.132938
0.988333	38.288	-0.132784
0.990000	38.304	-0.132625
0.991667	38.321	-0.132479
0.993333	38.338	-0.132333
0.995000	38.354	-0.132129
0.996667	38.370	-0.131854
0.998333	38.388	-0.131549
1.00000	38.404	-0.131252
1.00167	38.421	-0.130975
1.00333	38.438	-0.130685
1.00500	38.454	-0.130395
1.00667	38.470	-0.130123
1.00833	38.487	-0.129879
1.01000	38.505	-0.129661
1.01167	38.522	-0.129443
1.01333	38.538	-0.129141
1.01500	38.555	-0.128819
1.01667	38.571	-0.128524
1.01833	38.588	-0.128211
1.02000	38.607	-0.128006
1.02167	38.622	-0.127846
1.02333	38.640	-0.127668
1.02500	38.656	-0.127474
1.02667	38.672	-0.127365
1.02833	38.688	-0.127261
1.03000	38.706	-0.127176
1.03167	38.722	-0.126994
1.03333	38.739	-0.126821
1.03500	38.756	-0.126613
1.03667	38.772	-0.126389
1.03833	38.789	-0.126184
1.04000	38.807	-0.125943
1.04167	38.824	-0.125685
1.04333	38.839	-0.125381
1.04500	38.856	-0.125153
1.04667	38.873	-0.124913
1.04833	38.890	-0.124682
1.05000	38.906	-0.124414
1.05167	38.924	-0.124214
1.05333	38.941	-0.123975
1.05500	38.958	-0.123758
1.05667	38.974	-0.123555
1.05833	38.991	-0.123345
1.06000	39.009	-0.123160
1.06167	39.024	-0.122956
1.06333	39.042	-0.122835
1.06500	39.058	-0.122726
1.06667	39.074	-0.122604
1.06833	39.090	-0.122508
1.07000	39.107	-0.122451
1.07167	39.124	-0.122409
1.07333	39.141	-0.122381
1.07500	39.157	-0.122344
1.07667	39.174	-0.122337
1.07833	39.191	-0.122332
1.08000	39.208	-0.122331
1.08167	39.225	-0.122385
1.08333	39.241	-0.122415
1.08500	39.258	-0.122410
1.08667	39.275	-0.122380
1.08833	39.291	-0.122348
1.09000	39.308	-0.122313
1.09167	39.325	-0.122284
1.09333	39.343	-0.122240
1.09500	39.358	-0.122187
1.09667	39.376	-0.122142
1.09833	39.393	-0.122089
1.10000	39.410	-0.122049
1.10167	39.426	-0.122027
1.10333	39.443	-0.122007
1.10500	39.460	-0.121984
1.10667	39.476	-0.121946
1.10833	39.493	-0.121911
1.11000	39.510	-0.121899
1.11167	39.527	-0.121867
1.11333	39.543	-0.121836
1.11500	39.559	-0.121832
1.11667	39.577	-0.121822
1.11833	39.593	-0.121796
1.12000	39.611	-0.121747
1.12167	39.627	-0.121707
1.12333	39.643	-0.121676
1.12500	39.660	-0.121637
1.12667	39.677	-0.121617
1.12833	39.694	-0.121609
1.13000	39.711	-0.121603
1.13167	39.727	-0.121604
1.13333	39.745	-0.121608
1.13500	39.761	-0.121618
1.13667	39.778	-0.121633
1.13833	39.794	-0.121642
1.14000	39.810	-0.121653
1.14167	39.827	-0.121657
1.14333	39.844	-0.121659
1.14500	39.860	-0.121660
1.14667	39.878	-0.121661
1.14833	39.894	-0.121661
1.15000	39.911	-0.121662
1.15167	39.929	-0.121663
1.15333	39.944	-0.121666
1.15500	39.961	-0.121670
1.15667	39.977	-0.121671
1.15833	39.994	-0.121674
1.16000	40.010	-0.121680
1.16167	40.028	-0.121694
1.16333	40.045	-0.121720
1.16500	40.062	-0.121761
1.16667	40.078	-0.121807
1.16833	40.096	-0.121882
1.17000	40.112	-0.121943
1.17167	40.129	-0.122003
1.17333	40.146	-0.122027
1.17500	40.162	-0.122035
1.17667	40.179	-0.122045
1.17833	40.195	-0.122052
1.18000	40.212	-0.122062
1.18167	40.228	-0.122076
1.18333	40.245	-0.122112
1.18500	40.261	-0.122149
1.18667	40.280	-0.122206
1.18833	40.296	-0.122288
1.19000	40.312	-0.122401
1.19167	40.329	-0.122506
1.19333	40.346	-0.122572
1.19500	40.362	-0.122663
1.19667	40.379	-0.122768
1.19833	40.396	-0.122918
1.20000	40.412	-0.123115
1.20167	40.428	-0.123322
1.20333	40.445	-0.123505
1.20500	40.462	-0.123671
1.20667	40.479	-0.123777
1.20833	40.495	-0.123848
1.21000	40.511	-0.123924
1.21167	40.528	-0.123984
1.21333	40.545	-0.124058
1.21500	40.562	-0.124151
1.21667	40.579	-0.124254
1.21833	40.596	-0.124407
1.22000	40.613	-0.124629
1.22167	40.629	-0.124831
1.22333	40.646	-0.125045
1.22500	40.662	-0.125303
1.22667	40.680	-0.125478
1.22833	40.696	-0.125672
1.23000	40.713	-0.125881
1.23167	40.729	-0.126079
1.23333	40.746	-0.126328
1.23500	40.762	-0.126593
1.23667	40.779	-0.126792
1.23833	40.796	-0.127012
1.24000	40.813	-0.127193
1.24167	40.829	-0.127342
1.24333	40.846	-0.127488
1.24500	40.863	-0.127564
1.24667	40.879	-0.127616
1.24833	40.896	-0.127664
1.25000	40.913	-0.127704
1.25167	40.930	-0.127801
1.25333	40.946	-0.127930
1.25500	40.963	-0.128093
1.25667	40.980	-0.128331
1.25833	40.997	-0.128592
1.26000	41.014	-0.128857
1.26167	41.030	-0.129155
1.26333	41.047	-0.129483
1.26500	41.064	-0.129794
1.26667	41.081	-0.130025
1.26833	41.097	-0.130192
1.27000	41.115	-0.130351
1.27167	41.131	-0.130492
1.27333	41.147	-0.130644
1.27500	41.164	-0.130890
1.27667	41.180	-0.131046
1.27833	41.197	-0.131162
1.28000	41.213	-0.131228
1.28167	41.230	-0.131276
1.28333	41.246	-0.131328
1.28500	41.263	-0.131371
1.28667	41.280	-0.131434
1.28833	41.297	-0.131492
1.29000	41.314	-0.131534
1.29167	41.331	-0.131595
1.29333	41.348	-0.131731
1.29500	41.364	-0.131920
1.29667	41.382	-0.132145
1.29833	41.398	-0.132362
1.30000	41.414	-0.132630
1.30167	41.431	-0.132979
1.30333	41.447	-0.133302
1.30500	41.464	-0.133624
1.30667	41.482	-0.133988
1.30833	41.498	-0.134271
1.31000	41.514	-0.134489
1.31167	41.532	-0.134722
1.31333	41.549	-0.135006
1.31500	41.565	-0.135239
1.31667	41.582	-0.135448
1.31833	41.599	-0.135709
1.32000	41.615	-0.136092
1.32167	41.630	-0.136469
1.32333	41.648	-0.136771
1.32500	41.665	-0.137085
1.32667	41.681	-0.137439
1.32833	41.697	-0.137753
1.33000	41.715	-0.138126
1.33167	41.732	-0.138359
1.33333	41.749	-0.138513
1.33500	41.765	-0.138605
1.33667	41.783	-0.138725
1.33833	41.799	-0.138884
1.34000	41.816	-0.139093
1.34167	41.832	-0.139344
1.34333	41.849	-0.139596
1.34500	41.866	-0.139817
1.34667	41.882	-0.140008
1.34833	41.898	-0.140114
1.35000	41.916	-0.140182
1.35167	41.932	-0.140248
1.35333	41.949	-0.140289
1.35500	41.966	-0.140395
1.35667	41.982	-0.140515
1.35833	41.999	-0.140656
1.36000	42.016	-0.140843
1.36167	42.033	-0.140988
1.36333	42.050	-0.141125
1.36500	42.065	-0.141225
1.36667	42.082	-0.141322
1.36833	42.100	-0.141410
1.37000	42.116	-0.141514
1.37167	42.132	-0.141629
1.37333	42.150	-0.141853
1.37500	42.167	-0.142089
1.37667	42.183	-0.142264
1.37833	42.200	-0.142348
1.38000	42.217	-0.142392
1.38167	42.234	-0.142416
1.38333	42.249	-0.142437
1.38500	42.267	-0.142453
1.38667	42.282	-0.142482
1.38833	42.299	-0.142548
1.39000	42.317	-0.142643
1.39167	42.333	-0.142810
1.39333	42.350	-0.142951
1.39500	42.366	-0.143066
1.39667	42.383	-0.143163
1.39833	42.399	-0.143255
1.40000	42.416	-0.143353
1.40167	42.432	-0.143478
1.40333	42.450	-0.143650
1.40500	42.467	-0.143850
1.40667	42.484	-0.144062
1.40833	42.500	-0.144236
1.41000	42.517	-0.144454
1.41167	42.533	-0.144625
1.41333	42.550	-0.144815
1.41500	42.568	-0.144952
1.41667	42.584	-0.145055
1.41833	42.601	-0.145213
1.42000	42.617	-0.145336
1.42167	42.634	-0.145411
1.42333	42.650	-0.145481
1.42500	42.666	-0.145557
1.42667	42.683	-0.145606
1.42833	42.699	-0.145641
1.43000	42.717	-0.145707
1.43167	42.732	-0.145795
1.43333	42.750	-0.145905
1.43500	42.767	-0.146043
1.43667	42.783	-0.146323
1.43833	42.800	-0.146652
1.44000	42.818	-0.146862
1.44167	42.834	-0.147031
1.44333	42.850	-0.147196
1.44500	42.866	-0.147378
1.44667	42.884	-0.147499
1.44833	42.901	-0.147636
1.45000	42.917	-0.147742
1.45167	42.934	-0.147836
1.45333	42.950	-0.147932
1.45500	42.966	-0.148046
1.45667	42.983	-0.148213
1.45833	43.000	-0.148346
1.46000	43.017	-0.148413
1.46167	43.033	-0.148444
1.46333	43.050	-0.148467
1.46500	43.067	-0.148505
1.46667	43.084	-0.148521
1.46833	43.100	-0.148529
1.47000	43.116	-0.148532
1.47167	43.134	-0.148544
1.47333	43.150	-0.148548
1.47500	43.167	-0.148561
1.47667	43.185	-0.148593
1.47833	43.201	-0.148647
1.48000	43.218	-0.148692
1.48167	43.234	-0.148721
1.48333	43.250	-0.148767
1.48500	43.267	-0.148815
1.48667	43.285	-0.148877
1.48833	43.300	-0.148911
1.49000	43.317	-0.148919
1.49167	43.334	-0.148947
1.49333	43.351	-0.148954
1.49500	43.367	-0.148977
1.49667	43.383	-0.149035
1.49833	43.400	-0.149067
1.50000	43.418	-0.149104
1.50167	43.435	-0.149157
1.50333	43.450	-0.149210
1.50500	43.467	-0.149299
1.50667	43.485	-0.149372
1.50833	43.501	-0.149407
1.51000	43.518	-0.149423
1.51167	43.534	-0.149435
1.51333	43.551	-0.149454
1.51500	43.567	-0.149473
1.51667	43.585	-0.149489
1.51833	43.601	-0.149520
1.52000	43.617	-0.149548
1.52167	43.635	-0.149571
1.52333	43.652	-0.149583
1.52500	43.667	-0.149592
1.52667	43.686	-0.149600
1.52833	43.701	-0.149613
1.53000	43.718	-0.149634
1.53167	43.735	-0.149656
1.53333	43.751	-0.149684
1.53500	43.769	-0.149704
1.53667	43.786	-0.149737
1.53833	43.802	-0.149767
1.54000	43.818	-0.149785
1.54167	43.835	-0.149796
1.54333	43.851	-0.149820
1.54500	43.869	-0.149848
1.54667	43.884	-0.149858
1.54833	43.901	-0.149870
1.55000	43.917	-0.149887
1.55167	43.935	-0.149907
1.55333	43.952	-0.149920
1.55500	43.969	-0.149933
1.55667	43.985	-0.149965
1.55833	44.002	-0.150008
1.56000	44.020	-0.150046
1.56167	44.035	-0.150088
1.56333	44.052	-0.150123
1.56500	44.069	-0.150138
1.56667	44.085	-0.150153
1.56833	44.101	-0.150169
1.57000	44.119	-0.150184
1.57167	44.135	-0.150197
1.57333	44.152	-0.150210
1.57500	44.170	-0.150224
1.57667	44.186	-0.150239
1.57833	44.203	-0.150269
1.58000	44.219	-0.150311
1.58167	44.236	-0.150355
1.58333	44.253	-0.150399
1.58500	44.269	-0.150444
1.58667	44.286	-0.150483
1.58833	44.302	-0.150528
1.59000	44.320	-0.150558
1.59167	44.336	-0.150575
1.59333	44.353	-0.150596
1.59500	44.370	-0.150607
1.59667	44.388	-0.150618
1.59833	44.404	-0.150628
1.60000	44.421	-0.150638
1.60167	44.439	-0.150649
1.60333	44.454	-0.150660
1.60500	44.471	-0.150671
1.60667	44.487	-0.150684
1.60833	44.504	-0.150699
1.61000	44.521	-0.150716
1.61167	44.538	-0.150738
1.61333	44.554	-0.150755
1.61500	44.571	-0.150785
1.61667	44.587	-0.150819
1.61833	44.604	-0.150868
1.62000	44.621	-0.150899
1.62167	44.637	-0.150917
1.62333	44.654	-0.150935
1.62500	44.671	-0.150953
1.62667	44.687	-0.150970
1.62833	44.705	-0.150987
1.63000	44.721	-0.151003
1.63167	44.738	-0.151024
1.63333	44.754	-0.151042
1.63500	44.771	-0.151059
1.63667	44.789	-0.151080
1.63833	44.805	-0.151099
1.64000	44.822	-0.151117
1.64167	44.837	-0.151138
1.64333	44.854	-0.151158
1.64500	44.870	-0.151178
1.64667	44.888	-0.151195
1.64833	44.905	-0.151213
1.65000	44.921	-0.151233
1.65167	44.939	-0.151253
1.65333	44.955	-0.151272
1.65500	44.971	-0.151291
1.65667	44.987	-0.151309
1.65833	45.005	-0.151328
1.66000	45.021	-0.151347
1.66167	45.038	-0.151366
1.66333	45.055	-0.151381
1.66500	45.072	-0.151393
1.66667	45.088	-0.151403
1.66833	45.106	-0.151417
1.67000	45.122	-0.151431
1.67167	45.139	-0.151447
1.67333	45.156	-0.151463
1.67500	45.172	-0.151480
1.67667	45.188	-0.151503
1.67833	45.205	-0.151528
1.68000	45.222	-0.151562
1.68167	45.238	-0.151602
1.68333	45.254	-0.151622
1.68500	45.271	-0.151643
1.68667	45.289	-0.151664
1.68833	45.305	-0.151685
1.69000	45.322	-0.151722
1.69167	45.338	-0.151766
1.69333	45.356	-0.151796
1.69500	45.372	-0.151823
1.69667	45.388	-0.151844
1.69833	45.405	-0.151864
1.70000	45.422	-0.151886
1.70167	45.439	-0.151908
1.70333	45.456	-0.151928
1.70500	45.472	-0.151946
1.70667	45.489	-0.151963
1.70833	45.506	-0.151977
1.71000	45.523	-0.151992
1.71167	45.538	-0.152005
1.71333	45.556	-0.152016
1.71500	45.572	-0.152027
1.71667	45.588	-0.152038
1.71833	45.604	-0.152054
1.72000	45.622	-0.152074
1.72167	45.639	-0.152094
1.72333	45.656	-0.152142
1.72500	45.672	-0.152215
1.72667	45.690	-0.152271
1.72833	45.707	-0.152318
1.73000	45.723	-0.152347
1.73167	45.740	-0.152368
1.73333	45.757	-0.152389
1.73500	45.773	-0.152407
1.73667	45.790	-0.152424
1.73833	45.807	-0.152442
1.74000	45.822	-0.152459
1.74167	45.839	-0.152475
1.74333	45.857	-0.152493
1.74500	45.874	-0.152509
1.74667	45.890	-0.152526
1.74833	45.907	-0.152544
1.75000	45.924	-0.152563
1.75167	45.941	-0.152585
1.75333	45.957	-0.152613
1.75500	45.974	-0.152640
1.75667	45.991	-0.152679
1.75833	46.008	-0.152719
1.76000	46.025	-0.152741
1.76167	46.042	-0.152762
1.76333	46.059	-0.152782
1.76500	46.075	-0.152798
1.76667	46.092	-0.152814
1.76833	46.108	-0.152831
1.77000	46.125	-0.152848
1.77167	46.142	-0.152868
1.77333	46.158	-0.152886
1.77500	46.175	-0.152906
1.77667	46.192	-0.152927
1.77833	46.208	-0.152947
1.78000	46.225	-0.152969
1.78167	46.241	-0.152990
1.78333	46.258	-0.153009
1.78500	46.276	-0.153026
1.78667	46.292	-0.153045
1.78833	46.308	-0.153064
1.79000	46.326	-0.153084
1.79167	46.342	-0.153105
1.79333	46.358	-0.153124
1.79500	46.375	-0.153144
1.79667	46.391	-0.153163
1.79833	46.407	-0.153181
1.80000	46.423	-0.153201
1.80167	46.440	-0.153221
1.80333	46.456	-0.153240
1.80500	46.474	-0.153260
1.80667	46.491	-0.153280
1.80833	46.507	-0.153300
1.81000	46.524	-0.153322
1.81167	46.540	-0.153344
1.81333	46.557	-0.153366
1.81500	46.574	-0.153385
1.81667	46.590	-0.153402
1.81833	46.607	-0.153419
1.82000	46.624	-0.153437
1.82167	46.642	-0.153454
1.82333	46.657	-0.153469
1.82500	46.674	-0.153485
1.82667	46.691	-0.153499
1.82833	46.708	-0.153515
1.83000	46.725	-0.153533
1.83167	46.741	-0.153552
1.83333	46.758	-0.153572
1.83500	46.775	-0.153594
1.83667	46.792	-0.153615
1.83833	46.808	-0.153638
1.84000	46.825	-0.153663
1.84167	46.841	-0.153685
1.84333	46.857	-0.153708
1.84500	46.874	-0.153729
1.84667	46.892	-0.153751
1.84833	46.907	-0.153771
1.85000	46.924	-0.153793
1.85167	46.941	-0.153815
1.85333	46.957	-0.153835
1.85500	46.974	-0.153852
1.85667	46.990	-0.153867
1.85833	47.008	-0.153882
1.86000	47.024	-0.153900
1.86167	47.042	-0.153916
1.86333	47.059	-0.153934
1.86500	47.075	-0.153951
1.86667	47.092	-0.153969
1.86833	47.108	-0.153986
1.87000	47.126	-0.154006
1.87167	47.142	-0.154026
1.87333	47.159	-0.154045
1.87500	47.175	-0.154066
1.87667	47.192	-0.154088
1.87833	47.208	-0.154110
1.88000	47.225	-0.154132
1.88167	47.241	-0.154155
1.88333	47.258	-0.154183
1.88500	47.275	-0.154206
1.88667	47.292	-0.154227
1.88833	47.308	-0.154247
1.89000	47.326	-0.154265
1.89167	47.343	-0.154284
1.89333	47.360	-0.154306
1.89500	47.376	-0.154326
1.89667	47.394	-0.154345
1.89833	47.409	-0.154365
1.90000	47.427	-0.154385
1.90167	47.443	-0.154406
1.90333	47.459	-0.154429
1.90500	47.476	-0.154449
1.90667	47.493	-0.154465
1.90833	47.510	-0.154480
1.91000	47.527	-0.154496
1.91167	47.544	-0.154512
1.91333	47.561	-0.154527
1.91500	47.576	-0.154545
1.91667	47.594	-0.154564
1.91833	47.610	-0.154585
1.92000	47.628	-0.154608
1.92167	47.644	-0.154629
1.92333	47.660	-0.154650
1.92500	47.678	-0.154672
1.92667	47.694	-0.154694
1.92833	47.711	-0.154715
1.93000	47.727	-0.154736
1.93167	47.743	-0.154759
1.93333	47.759	-0.154781
1.93500	47.776	-0.154802
1.93667	47.793	-0.154836
1.93833	47.810	-0.154867
1.94000	47.828	-0.154904
1.94167	47.844	-0.154925
1.94333	47.860	-0.154945
1.94500	47.877	-0.154961
1.94667	47.894	-0.154975
1.94833	47.911	-0.154990
1.95000	47.928	-0.155007
1.95167	47.943	-0.155022
1.95333	47.960	-0.155039
1.95500	47.977	-0.155057
1.95667	47.993	-0.155078
1.95833	48.010	-0.155116
1.96000	48.027	-0.155154
1.96167	48.043	-0.155216
1.96333	48.060	-0.155278
1.96500	48.077	-0.155331
1.96667	48.092	-0.155378
1.96833	48.110	-0.155401
1.97000	48.127	-0.155438
1.97167	48.143	-0.155460
1.97333	48.160	-0.155483
1.97500	48.176	-0.155507
1.97667	48.194	-0.155530
1.97833	48.212	-0.155553
1.98000	48.227	-0.155581
1.98167	48.244	-0.155605
1.98333	48.260	-0.155629
1.98500	48.277	-0.155652
1.98667	48.294	-0.155671
1.98833	48.310	-0.155693
1.99000	48.327	-0.155715
1.99167	48.344	-0.155739
1.99333	48.361	-0.155763
1.99500	48.377	-0.155785
1.99667	48.394	-0.155806
1.99833	48.411	-0.155828
2.00000	48.427	-0.155848
2.00167	48.444	-0.155865
2.00333	48.460	-0.155881
2.00500	48.477	-0.155895
2.00667	48.494	-0.155910
2.00833	48.510	-0.155926
2.01000	48.527	-0.155943
2.01167	48.543	-0.155963
2.01333	48.561	-0.155985
2.01500	48.577	-0.156007
2.01667	48.594	-0.156029
2.01833	48.610	-0.156051
2.02000	48.627	-0.156070
2.02167	48.644	-0.156091
2.02333	48.661	-0.156113
2.02500	48.677	-0.156135
2.02667	48.694	-0.156155
2.02833	48.711	-0.156173
2.03000	48.729	-0.156193
2.03167	48.744	-0.156215
2.03333	48.760	-0.156239
2.03500	48.777	-0.156261
2.03667	48.795	-0.156284
2.03833	48.812	-0.156307
2.04000	48.828	-0.156330
2.04167	48.844	-0.156353
2.04333	48.861	-0.156375
2.04500	48.878	-0.156397
2.04667	48.894	-0.156418
2.04833	48.912	-0.156439
2.05000	48.928	-0.156458
2.05167	48.944	-0.156478
2.05333	48.961	-0.156499
2.05500	48.978	-0.156522
2.05667	48.994	-0.156570
2.05833	49.010	-0.156624
2.06000	49.027	-0.156683
2.06167	49.044	-0.156721
2.06333	49.061	-0.156757
2.06500	49.078	-0.156781
2.06667	49.095	-0.156805
2.06833	49.112	-0.156823
2.07000	49.129	-0.156843
2.07167	49.145	-0.156860
2.07333	49.162	-0.156880
2.07500	49.178	-0.156899
2.07667	49.194	-0.156919
2.07833	49.211	-0.156938
2.08000	49.227	-0.156960
2.08167	49.244	-0.156983
2.08333	49.261	-0.157007
2.08500	49.277	-0.157032
2.08667	49.295	-0.157056
2.08833	49.313	-0.157088
2.09000	49.329	-0.157113
2.09167	49.345	-0.157141
2.09333	49.362	-0.157162
2.09500	49.378	-0.157184
2.09667	49.395	-0.157206
2.09833	49.412	-0.157229
2.10000	49.429	-0.157251
2.10167	49.445	-0.157273
2.10333	49.462	-0.157294
2.10500	49.478	-0.157317
2.10667	49.496	-0.157344
2.10833	49.512	-0.157392
2.11000	49.529	-0.157454
2.11167	49.546	-0.157480
2.11333	49.562	-0.157515
2.11500	49.579	-0.157559
2.11667	49.596	-0.157643
2.11833	49.612	-0.157755
2.12000	49.629	-0.157816
2.12167	49.646	-0.157839
2.12333	49.662	-0.157863
2.12500	49.679	-0.157888
2.12667	49.695	-0.157910
2.12833	49.712	-0.157931
2.13000	49.729	-0.157950
2.13167	49.747	-0.157969
2.13333	49.763	-0.157990
2.13500	49.779	-0.158011
2.13667	49.796	-0.158034
2.13833	49.812	-0.158061
2.14000	49.829	-0.158091
2.14167	49.847	-0.158180
2.14333	49.862	-0.158289
2.14500	49.880	-0.158371
2.14667	49.897	-0.158421
2.14833	49.912	-0.158446
2.15000	49.930	-0.158471
2.15167	49.947	-0.158499
2.15333	49.963	-0.158522
2.15500	49.980	-0.158547
2.15667	49.996	-0.158570
2.15833	50.013	-0.158595
2.16000	50.030	-0.158620
2.16167	50.046	-0.158643
2.16333	50.063	-0.158666
2.16500	50.079	-0.158690
2.16667	50.096	-0.158715
2.16833	50.112	-0.158740
2.17000	50.128	-0.158765
2.17167	50.146	-0.158789
2.17333	50.163	-0.158815
2.17500	50.180	-0.158844
2.17667	50.196	-0.158893
2.17833	50.213	-0.158925
2.18000	50.229	-0.158950
2.18167	50.246	-0.158973
2.18333	50.263	-0.158994
2.18500	50.279	-0.159016
2.18667	50.297	-0.159039
2.18833	50.314	-0.159062
2.19000	50.330	-0.159083
2.19167	50.346	-0.159105
2.19333	50.363	-0.159128
2.19500	50.380	-0.159152
2.19667	50.397	-0.159178
2.19833	50.414	-0.159204
2.20000	50.430	-0.159229
2.20167	50.447	-0.159252
2.20333	50.464	-0.159276
2.20500	50.480	-0.159299
2.20667	50.497	-0.159323
2.20833	50.513	-0.159349
2.21000	50.529	-0.159371
2.21167	50.546	-0.159391
2.21333	50.563	-0.159411
2.21500	50.580	-0.159434
2.21667	50.597	-0.159457
2.21833	50.613	-0.159482
2.22000	50.630	-0.159505
2.22167	50.647	-0.159528
2.22333	50.663	-0.159550
2.22500	50.680	-0.159573
2.22667	50.697	-0.159613
2.22833	50.714	-0.159640
2.23000	50.731	-0.159664
2.23167	50.748	-0.159685
2.23333	50.764	-0.159705
2.23500	50.780	-0.159726
2.23667	50.797	-0.159749
2.23833	50.813	-0.159770
2.24000	50.830	-0.159791
2.24167	50.847	-0.159810
2.24333	50.864	-0.159830
2.24500	50.882	-0.159849
2.24667	50.897	-0.159867
2.24833	50.915	-0.159884
2.25000	50.930	-0.159903
2.25167	50.947	-0.159925
2.25333	50.964	-0.159948
2.25500	50.980	-0.159980
2.25667	50.996	-0.160019
2.25833	51.013	-0.160054
2.26000	51.030	-0.160090
2.26167	51.046	-0.160136
2.26333	51.064	-0.160161
2.26500	51.081	-0.160186
2.26667	51.098	-0.160205
2.26833	51.114	-0.160221
2.27000	51.131	-0.160238
2.27167	51.147	-0.160253
2.27333	51.165	-0.160268
2.27500	51.181	-0.160283
2.27667	51.197	-0.160297
2.27833	51.214	-0.160311
2.28000	51.230	-0.160326
2.28167	51.247	-0.160344
2.28333	51.264	-0.160366
2.28500	51.281	-0.160389
2.28667	51.298	-0.160410
2.28833	51.314	-0.160433
2.29000	51.331	-0.160456
2.29167	51.348	-0.160476
2.29333	51.365	-0.160494
2.29500	51.382	-0.160512
2.29667	51.399	-0.160529
2.29833	51.414	-0.160545
2.30000	51.432	-0.160562
2.30167	51.449	-0.160576
2.30333	51.465	-0.160593
2.30500	51.481	-0.160609
2.30667	51.498	-0.160626
2.30833	51.514	-0.160645
2.31000	51.532	-0.160664
2.31167	51.549	-0.160682
2.31333	51.565	-0.160700
2.31500	51.581	-0.160717
2.31667	51.599	-0.160734
2.31833	51.616	-0.160751
2.32000	51.632	-0.160764
2.32167	51.648	-0.160778
2.32333	51.664	-0.160791
2.32500	51.682	-0.160803
2.32667	51.697	-0.160818
2.32833	51.716	-0.160835
2.33000	51.731	-0.160851
2.33167	51.748	-0.160869
2.33333	51.765	-0.160887
2.33500	51.781	-0.160904
2.33667	51.799	-0.160920
2.33833	51.816	-0.160935
2.34000	51.832	-0.160949
2.34167	51.848	-0.160962
2.34333	51.866	-0.160972
2.34500	51.882	-0.160983
2.34667	51.899	-0.160993
2.34833	51.916	-0.161004
2.35000	51.931	-0.161017
2.35167	51.949	-0.161029
2.35333	51.965	-0.161039
2.35500	51.982	-0.161052
2.35667	52.000	-0.161066
2.35833	52.016	-0.161080
2.36000	52.033	-0.161093
2.36167	52.049	-0.161106
2.36333	52.066	-0.161119
2.36500	52.082	-0.161134
2.36667	52.099	-0.161148
2.36833	52.116	-0.161159
2.37000	52.132	-0.161170
2.37167	52.149	-0.161177
2.37333	52.166	-0.161184
2.37500	52.183	-0.161195
2.37667	52.200	-0.161206
2.37833	52.217	-0.161218
2.38000	52.233	-0.161232
2.38167	52.249	-0.161249
2.38333	52.266	-0.161265
2.38500	52.282	-0.161282
2.38667	52.300	-0.161296
2.38833	52.316	-0.161307
2.39000	52.333	-0.161315
2.39167	52.350	-0.161322
2.39333	52.366	-0.161328
2.39500	52.383	-0.161335
2.39667	52.400	-0.161340
2.39833	52.416	-0.161347
2.40000	52.433	-0.161354
2.40167	52.450	-0.161362
2.40333	52.466	-0.161372
2.40500	52.483	-0.161382
2.40667	52.500	-0.161391
2.40833	52.515	-0.161399
2.41000	52.534	-0.161407
2.41167	52.550	-0.161415
2.41333	52.566	-0.161422
2.41500	52.583	-0.161428
2.41667	52.600	-0.161431
2.41833	52.617	-0.161432
2.42000	52.633	-0.161433
2.42167	52.650	-0.161434
2.42333	52.666	-0.161437
2.42500	52.683	-0.161442
2.42667	52.699	-0.161447
2.42833	52.717	-0.161456
2.43000	52.734	-0.161466
2.43167	52.750	-0.161476
2.43333	52.767	-0.161487
2.43500	52.784	-0.161496
2.43667	52.800	-0.161506
2.43833	52.816	-0.161515
2.44000	52.833	-0.161522
2.44167	52.851	-0.161526
2.44333	52.867	-0.161527
2.44500	52.883	-0.161528
2.44667	52.900	-0.161529
2.44833	52.917	-0.161529
2.45000	52.933	-0.161525
2.45167	52.950	-0.161525
2.45333	52.967	-0.161526
2.45500	52.984	-0.161531
2.45667	53.001	-0.161537
2.45833	53.017	-0.161544
2.46000	53.034	-0.161549
2.46167	53.051	-0.161554
2.46333	53.068	-0.161558
2.46500	53.085	-0.161562
2.46667	53.101	-0.161567
2.46833	53.118	-0.161572
2.47000	53.135	-0.161576
2.47167	53.151	-0.161578
2.47333	53.168	-0.161579
2.47500	53.184	-0.161582
2.47667	53.202	-0.161581
2.47833	53.218	-0.161579
2.48000	53.235	-0.161577
2.48167	53.252	-0.161577
2.48333	53.268	-0.161580
2.48500	53.285	-0.161584
2.48667	53.302	-0.161587
2.48833	53.318	-0.161587
2.49000	53.334	-0.161585
2.49167	53.351	-0.161583
2.49333	53.367	-0.161581
2.49500	53.384	-0.161573
2.49667	53.401	-0.161550
2.49833	53.418	-0.161528
2.50000	53.436	-0.161522
2.50167	53.451	-0.161519
2.50333	53.469	-0.161519
2.50500	53.484	-0.161520
2.50667	53.501	-0.161520
2.50833	53.518	-0.161521
2.51000	53.535	-0.161520
2.51167	53.551	-0.161522
2.51333	53.568	-0.161526
2.51500	53.586	-0.161529
2.51667	53.601	-0.161530
2.51833	53.619	-0.161529
2.52000	53.635	-0.161525
2.52167	53.652	-0.161519
2.52333	53.668	-0.161513
2.52500	53.685	-0.161501
2.52667	53.701	-0.161488
2.52833	53.718	-0.161479
2.53000	53.735	-0.161469
2.53167	53.752	-0.161463
2.53333	53.767	-0.161456
2.53500	53.785	-0.161453
2.53667	53.803	-0.161451
2.53833	53.819	-0.161450
2.54000	53.836	-0.161449
2.54167	53.852	-0.161447
2.54333	53.869	-0.161445
2.54500	53.886	-0.161445
2.54667	53.902	-0.161445
2.54833	53.918	-0.161444
2.55000	53.935	-0.161443
2.55167	53.952	-0.161440
2.55333	53.969	-0.161435
2.55500	53.986	-0.161430
2.55667	54.002	-0.161425
2.55833	54.019	-0.161420
2.56000	54.036	-0.161414
2.56167	54.053	-0.161409
2.56333	54.069	-0.161404
2.56500	54.087	-0.161395
2.56667	54.103	-0.161383
2.56833	54.120	-0.161362
2.57000	54.136	-0.161334
2.57167	54.153	-0.161313
2.57333	54.169	-0.161290
2.57500	54.186	-0.161270
2.57667	54.204	-0.161262
2.57833	54.220	-0.161255
2.58000	54.236	-0.161252
2.58167	54.253	-0.161250
2.58333	54.269	-0.161244
2.58500	54.285	-0.161237
2.58667	54.303	-0.161229
2.58833	54.321	-0.161219
2.59000	54.337	-0.161208
2.59167	54.353	-0.161192
2.59333	54.370	-0.161165
2.59500	54.387	-0.161154
2.59667	54.403	-0.161144
2.59833	54.420	-0.161137
2.60000	54.437	-0.161130
2.60167	54.455	-0.161121
2.60333	54.471	-0.161115
2.60500	54.487	-0.161111
2.60667	54.503	-0.161104
2.60833	54.520	-0.161093
2.61000	54.537	-0.161077
2.61167	54.554	-0.161043
2.61333	54.570	-0.161007
2.61500	54.587	-0.160991
2.61667	54.604	-0.160978
2.61833	54.621	-0.160967
2.62000	54.638	-0.160956
2.62167	54.654	-0.160947
2.62333	54.671	-0.160940
2.62500	54.687	-0.160931
2.62667	54.704	-0.160920
2.62833	54.722	-0.160901
2.63000	54.737	-0.160862
2.63167	54.754	-0.160830
2.63333	54.771	-0.160804
2.63500	54.788	-0.160785
2.63667	54.804	-0.160773
2.63833	54.822	-0.160763
2.64000	54.838	-0.160755
2.64167	54.854	-0.160748
2.64333	54.871	-0.160738
2.64500	54.889	-0.160727
2.64667	54.904	-0.160715
2.64833	54.921	-0.160700
2.65000	54.938	-0.160686
2.65167	54.955	-0.160671
2.65333	54.971	-0.160657
2.65500	54.988	-0.160644
2.65667	55.005	-0.160634
2.65833	55.022	-0.160622
2.66000	55.037	-0.160613
2.66167	55.055	-0.160601
2.66333	55.071	-0.160588
2.66500	55.087	-0.160572
2.66667	55.104	-0.160545
2.66833	55.121	-0.160525
2.67000	55.138	-0.160491
2.67167	55.154	-0.160471
2.67333	55.171	-0.160431
2.67500	55.187	-0.160387
2.67667	55.204	-0.160327
2.67833	55.221	-0.160288
2.68000	55.238	-0.160264
2.68167	55.254	-0.160243
2.68333	55.271	-0.160224
2.68500	55.288	-0.160206
2.68667	55.304	-0.160189
2.68833	55.322	-0.160173
2.69000	55.339	-0.160159
2.69167	55.355	-0.160146
2.69333	55.371	-0.160132
2.69500	55.388	-0.160119
2.69667	55.405	-0.160103
2.69833	55.421	-0.160088
2.70000	55.438	-0.160070
2.70167	55.456	-0.160038
2.70333	55.472	-0.159991
2.70500	55.488	-0.159960
2.70667	55.505	-0.159933
2.70833	55.522	-0.159916
2.71000	55.540	-0.159902
2.71167	55.556	-0.159889
2.71333	55.572	-0.159878
2.71500	55.588	-0.159867
2.71667	55.606	-0.159856
2.71833	55.622	-0.159840
2.72000	55.638	-0.159819
2.72167	55.656	-0.159790
2.72333	55.672	-0.159746
2.72500	55.688	-0.159705
2.72667	55.705	-0.159666
2.72833	55.723	-0.159630
2.73000	55.738	-0.159597
2.73167	55.755	-0.159564
2.73333	55.771	-0.159532
2.73500	55.788	-0.159512
2.73667	55.805	-0.159493
2.73833	55.822	-0.159474
2.74000	55.839	-0.159454
2.74167	55.856	-0.159436
2.74333	55.873	-0.159421
2.74500	55.889	-0.159406
2.74667	55.906	-0.159389
2.74833	55.922	-0.159371
2.75000	55.940	-0.159352
2.75167	55.956	-0.159332
2.75333	55.973	-0.159312
2.75500	55.990	-0.159293
2.75667	56.006	-0.159276
2.75833	56.023	-0.159255
2.76000	56.040	-0.159237
2.76167	56.056	-0.159222
2.76333	56.072	-0.159208
2.76500	56.089	-0.159192
2.76667	56.105	-0.159175
2.76833	56.122	-0.159156
2.77000	56.139	-0.159136
2.77167	56.156	-0.159118
2.77333	56.172	-0.159098
2.77500	56.190	-0.159076
2.77667	56.206	-0.159031
2.77833	56.221	-0.159009
2.78000	56.240	-0.158990
2.78167	56.256	-0.158973
2.78333	56.273	-0.158957
2.78500	56.289	-0.158938
2.78667	56.306	-0.158919
2.78833	56.322	-0.158901
2.79000	56.339	-0.158882
2.79167	56.357	-0.158863
2.79333	56.373	-0.158842
2.79500	56.390	-0.158812
2.79667	56.406	-0.158791
2.79833	56.423	-0.158768
2.80000	56.440	-0.158746
2.80167	56.456	-0.158724
2.80333	56.473	-0.158704
2.80500	56.489	-0.158683
2.80667	56.506	-0.158662
2.80833	56.523	-0.158635
2.81000	56.540	-0.158595
2.81167	56.556	-0.158564
2.81333	56.573	-0.158539
2.81500	56.589	-0.158504
2.81667	56.607	-0.158481
2.81833	56.623	-0.158458
2.82000	56.640	-0.158434
2.82167	56.657	-0.158414
2.82333	56.673	-0.158393
2.82500	56.690	-0.158371
2.82667	56.706	-0.158350
2.82833	56.722	-0.158332
2.83000	56.740	-0.158312
2.83167	56.756	-0.158296
2.83333	56.774	-0.158280
2.83500	56.789	-0.158264
2.83667	56.806	-0.158247
2.83833	56.823	-0.158226
2.84000	56.840	-0.158203
2.84167	56.856	-0.158164
2.84333	56.873	-0.158115
2.84500	56.890	-0.158050
2.84667	56.907	-0.157987
2.84833	56.922	-0.157912
2.85000	56.940	-0.157878
2.85167	56.957	-0.157854
2.85333	56.972	-0.157832
2.85500	56.990	-0.157814
2.85667	57.007	-0.157797
2.85833	57.023	-0.157781
2.86000	57.039	-0.157764
2.86167	57.056	-0.157745
2.86333	57.073	-0.157725
2.86500	57.091	-0.157698
2.86667	57.106	-0.157650
2.86833	57.123	-0.157585
2.87000	57.140	-0.157513
2.87167	57.156	-0.157443
2.87333	57.173	-0.157417
2.87500	57.190	-0.157396
2.87667	57.207	-0.157378
2.87833	57.223	-0.157364
2.88000	57.240	-0.157351
2.88167	57.256	-0.157338
2.88333	57.273	-0.157325
2.88500	57.291	-0.157311
2.88667	57.306	-0.157294
2.88833	57.324	-0.157275
2.89000	57.341	-0.157254
2.89167	57.357	-0.157233
2.89333	57.374	-0.157213
2.89500	57.390	-0.157196
2.89667	57.407	-0.157178
2.89833	57.424	-0.157160
2.90000	57.440	-0.157145
2.90167	57.457	-0.157129
2.90333	57.473	-0.157113
2.90500	57.490	-0.157095
2.90667	57.506	-0.157075
2.90833	57.523	-0.157054
2.91000	57.540	-0.157033
2.91167	57.557	-0.157016
2.91333	57.573	-0.156997
2.91500	57.591	-0.156979
2.91667	57.607	-0.156963
2.91833	57.623	-0.156946
2.92000	57.640	-0.156929
2.92167	57.657	-0.156908
2.92333	57.673	-0.156887
2.92500	57.689	-0.156841
2.92667	57.706	-0.156773
2.92833	57.723	-0.156686
2.93000	57.740	-0.156614
2.93167	57.756	-0.156563
2.93333	57.773	-0.156532
2.93500	57.790	-0.156510
2.93667	57.806	-0.156491
2.93833	57.823	-0.156475
2.94000	57.840	-0.156461
2.94167	57.856	-0.156449
2.94333	57.874	-0.156436
2.94500	57.890	-0.156422
2.94667	57.908	-0.156408
2.94833	57.924	-0.156393
2.95000	57.940	-0.156377
2.95167	57.956	-0.156361
2.95333	57.973	-0.156342
2.95500	57.990	-0.156323
2.95667	58.006	-0.156306
2.95833	58.024	-0.156291
2.96000	58.041	-0.156274
2.96167	58.058	-0.156257
2.96333	58.074	-0.156239
2.96500	58.091	-0.156222
2.96667	58.108	-0.156202
2.96833	58.123	-0.156185
2.97000	58.140	-0.156167
2.97167	58.157	-0.156146
2.97333	58.175	-0.156120
2.97500	58.190	-0.156085
2.97667	58.207	-0.156065
2.97833	58.223	-0.156045
2.98000	58.240	-0.156027
2.98167	58.257	-0.156011
2.98333	58.273	-0.155995
2.98500	58.290	-0.155982
2.98667	58.307	-0.155970
2.98833	58.323	-0.155958
2.99000	58.340	-0.155944
2.99167	58.357	-0.155929
2.99333	58.374	-0.155911
2.99500	58.391	-0.155894
2.99667	58.407	-0.155875
2.99833	58.425	-0.155856
3.00000	58.441	-0.155838
3.00167	58.456	-0.155810
3.00333	58.473	-0.155781
3.00500	58.491	-0.155754
3.00667	58.507	-0.155732
3.00833	58.524	-0.155708
3.01000	58.541	-0.155688
3.01167	58.558	-0.155669
3.01333	58.574	-0.155652
3.01500	58.590	-0.155637
3.01667	58.608	-0.155623
3.01833	58.624	-0.155609
3.02000	58.641	-0.155592
3.02167	58.658	-0.155575
3.02333	58.674	-0.155557
3.02500	58.690	-0.155539
3.02667	58.708	-0.155520
3.02833	58.723	-0.155502
3.03000	58.740	-0.155487
3.03167	58.757	-0.155476
3.03333	58.774	-0.155467
3.03500	58.790	-0.155459
3.03667	58.807	-0.155448
3.03833	58.824	-0.155435
3.04000	58.840	-0.155421
3.04167	58.857	-0.155405
3.04333	58.873	-0.155387
3.04500	58.891	-0.155368
3.04667	58.906	-0.155344
3.04833	58.924	-0.155315
3.05000	58.941	-0.155296
3.05167	58.957	-0.155279
3.05333	58.974	-0.155264
3.05500	58.990	-0.155246
3.05667	59.008	-0.155227
3.05833	59.024	-0.155208
3.06000	59.040	-0.155189
3.06167	59.057	-0.155171
3.06333	59.073	-0.155154
3.06500	59.090	-0.155138
3.06667	59.107	-0.155121
3.06833	59.124	-0.155105
3.07000	59.140	-0.155092
3.07167	59.157	-0.155081
3.07333	59.175	-0.155070
3.07500	59.191	-0.155058
3.07667	59.207	-0.155042
3.07833	59.224	-0.155025
3.08000	59.241	-0.155009
3.08167	59.257	-0.154994
3.08333	59.274	-0.154979
3.08500	59.291	-0.154962
3.08667	59.307	-0.154945
3.08833	59.324	-0.154928
3.09000	59.341	-0.154912
3.09167	59.358	-0.154895
3.09333	59.374	-0.154875
3.09500	59.390	-0.154831
3.09667	59.406	-0.154794
3.09833	59.423	-0.154776
3.10000	59.440	-0.154757
3.10167	59.457	-0.154739
3.10333	59.474	-0.154722
3.10500	59.490	-0.154705
3.10667	59.507	-0.154691
3.10833	59.524	-0.154678
3.11000	59.540	-0.154662
3.11167	59.558	-0.154646
3.11333	59.574	-0.154627
3.11500	59.590	-0.154610
3.11667	59.607	-0.154592
3.11833	59.624	-0.154577
3.12000	59.642	-0.154564
3.12167	59.657	-0.154552
3.12333	59.675	-0.154537
3.12500	59.691	-0.154523
3.12667	59.707	-0.154508
3.12833	59.724	-0.154493
3.13000	59.741	-0.154477
3.13167	59.757	-0.154463
3.13333	59.775	-0.154447
3.13500	59.790	-0.154428
3.13667	59.808	-0.154409
3.13833	59.823	-0.154395
3.14000	59.840	-0.154381
3.14167	59.856	-0.154368
3.14333	59.873	-0.154355
3.14500	59.889	-0.154338
3.14667	59.906	-0.154322
3.14833	59.924	-0.154304
3.15000	59.940	-0.154285
3.15167	59.957	-0.154265
3.15333	59.974	-0.154245
3.15500	59.991	-0.154214
3.15667	60.006	-0.154195
3.15833	60.024	-0.154178
3.16000	60.041	-0.154162
3.16167	60.056	-0.154146
3.16333	60.072	-0.154132
3.16500	60.090	-0.154121
3.16667	60.106	-0.154108
3.16833	60.123	-0.154095
3.17000	60.140	-0.154082
3.17167	60.156	-0.154069
3.17333	60.172	-0.154054
3.17500	60.189	-0.154036
3.17667	60.206	-0.154016
3.17833	60.223	-0.153992
3.18000	60.240	-0.153960
3.18167	60.257	-0.153917
3.18333	60.273	-0.153897
3.18500	60.290	-0.153878
3.18667	60.307	-0.153863
3.18833	60.324	-0.153850
3.19000	60.340	-0.153836
3.19167	60.357	-0.153824
3.19333	60.374	-0.153811
3.19500	60.390	-0.153799
3.19667	60.406	-0.153789
3.19833	60.423	-0.153779
3.20000	60.439	-0.153766
3.20167	60.456	-0.153751
3.20333	60.473	-0.153737
3.20500	60.490	-0.153723
3.20667	60.507	-0.153708
3.20833	60.524	-0.153690
3.21000	60.540	-0.153671
3.21167	60.557	-0.153654
3.21333	60.574	-0.153637
3.21500	60.590	-0.153621
3.21667	60.606	-0.153607
3.21833	60.624	-0.153592
3.22000	60.640	-0.153580
3.22167	60.658	-0.153567
3.22333	60.674	-0.153556
3.22500	60.691	-0.153544
3.22667	60.707	-0.153529
3.22833	60.724	-0.153513
3.23000	60.740	-0.153496
3.23167	60.756	-0.153478
3.23333	60.773	-0.153462
3.23500	60.789	-0.153448
3.23667	60.807	-0.153433
3.23833	60.823	-0.153418
3.24000	60.841	-0.153404
3.24167	60.857	-0.153389
3.24333	60.874	-0.153372
3.24500	60.890	-0.153353
3.24667	60.907	-0.153335
3.24833	60.924	-0.153317
3.25000	60.940	-0.153299
3.25167	60.957	-0.153284
3.25333	60.974	-0.153271
3.25500	60.990	-0.153258
3.25667	61.007	-0.153244
3.25833	61.023	-0.153232
3.26000	61.040	-0.153218
3.26167	61.057	-0.153201
3.26333	61.073	-0.153184
3.26500	61.089	-0.153165
3.26667	61.105	-0.153148
3.26833	61.123	-0.153132
3.27000	61.140	-0.153116
3.27167	61.157	-0.153098
3.27333	61.173	-0.153083
3.27500	61.190	-0.153070
3.27667	61.207	-0.153060
3.27833	61.224	-0.153051
3.28000	61.240	-0.153041
3.28167	61.257	-0.153033
3.28333	61.273	-0.153023
3.28500	61.290	-0.153012
3.28667	61.307	-0.153000
3.28833	61.324	-0.152982
3.29000	61.340	-0.152963
3.29167	61.357	-0.152946
3.29333	61.373	-0.152929
3.29500	61.389	-0.152914
3.29667	61.407	-0.152900
3.29833	61.424	-0.152886
3.30000	61.439	-0.152875
3.30167	61.456	-0.152863
3.30333	61.473	-0.152848
3.30500	61.489	-0.152831
3.30667	61.507	-0.152813
3.30833	61.523	-0.152795
3.31000	61.540	-0.152778
3.31167	61.556	-0.152764
3.31333	61.574	-0.152752
3.31500	61.591	-0.152740
3.31667	61.607	-0.152730
3.31833	61.622	-0.152720
3.32000	61.640	-0.152709
3.32167	61.656	-0.152697
3.32333	61.672	-0.152680
3.32500	61.690	-0.152661
3.32667	61.705	-0.152622
3.32833	61.722	-0.152561
3.33000	61.740	-0.152484
3.33167	61.757	-0.152439
3.33333	61.773	-0.152387
3.33500	61.790	-0.152368
3.33667	61.805	-0.152350
3.33833	61.823	-0.152333
3.34000	61.839	-0.152319
3.34167	61.857	-0.152304
3.34333	61.873	-0.152287
3.34500	61.890	-0.152271
3.34667	61.906	-0.152254
3.34833	61.923	-0.152237
3.35000	61.939	-0.152221
3.35167	61.955	-0.152204
3.35333	61.972	-0.152188
3.35500	61.989	-0.152175
3.35667	62.006	-0.152163
3.35833	62.022	-0.152154
3.36000	62.039	-0.152144
3.36167	62.056	-0.152134
3.36333	62.072	-0.152122
3.36500	62.088	-0.152108
3.36667	62.105	-0.152095
3.36833	62.122	-0.152082
3.37000	62.139	-0.152071
3.37167	62.155	-0.152061
3.37333	62.172	-0.152052
3.37500	62.189	-0.152043
3.37667	62.205	-0.152036
3.37833	62.223	-0.152027
3.38000	62.237	-0.152017
3.38167	62.253	-0.152007
3.38333	62.271	-0.151994
3.38500	62.288	-0.151981
3.38667	62.304	-0.151967
3.38833	62.321	-0.151952
3.39000	62.338	-0.151938
3.39167	62.355	-0.151926
3.39333	62.372	-0.151912
3.39500	62.388	-0.151896
3.39667	62.405	-0.151876
3.39833	62.422	-0.151838
3.40000	62.438	-0.151818
3.40167	62.455	-0.151801
3.40333	62.471	-0.151783
3.40500	62.489	-0.151768
3.40667	62.505	-0.151753
3.40833	62.521	-0.151740
3.41000	62.537	-0.151730
3.41167	62.554	-0.151722
3.41333	62.570	-0.151712
3.41500	62.588	-0.151700
3.41667	62.604	-0.151687
3.41833	62.621	-0.151674
3.42000	62.638	-0.151662
3.42167	62.654	-0.151648
3.42333	62.671	-0.151634
3.42500	62.688	-0.151620
3.42667	62.705	-0.151606
3.42833	62.721	-0.151592
3.43000	62.737	-0.151577
3.43167	62.754	-0.151555
3.43333	62.772	-0.151520
3.43500	62.787	-0.151484
3.43667	62.804	-0.151466
3.43833	62.821	-0.151449
3.44000	62.838	-0.151431
3.44167	62.854	-0.151415
3.44333	62.871	-0.151401
3.44500	62.888	-0.151388
3.44667	62.904	-0.151376
3.44833	62.921	-0.151364
3.45000	62.938	-0.151348
3.45167	62.956	-0.151332
3.45333	62.971	-0.151317
3.45500	62.988	-0.151302
3.45667	63.005	-0.151287
3.45833	63.021	-0.151272
3.46000	63.038	-0.151257
3.46167	63.054	-0.151241
3.46333	63.070	-0.151222
3.46500	63.088	-0.151204
3.46667	63.103	-0.151186
3.46833	63.120	-0.151154
3.47000	63.137	-0.151135
3.47167	63.154	-0.151118
3.47333	63.171	-0.151103
3.47500	63.189	-0.151091
3.47667	63.205	-0.151080
3.47833	63.222	-0.151068
3.48000	63.238	-0.151056
3.48167	63.255	-0.151041
3.48333	63.271	-0.151025
3.48500	63.287	-0.151009
3.48667	63.304	-0.150992
3.48833	63.321	-0.150974
3.49000	63.337	-0.150951
3.49167	63.354	-0.150932
3.49333	63.371	-0.150916
3.49500	63.388	-0.150898
3.49667	63.405	-0.150881
3.49833	63.420	-0.150864
3.50000	63.437	-0.150845
3.50167	63.454	-0.150827
3.50333	63.471	-0.150811
3.50500	63.487	-0.150796
3.50667	63.504	-0.150783
3.50833	63.521	-0.150772
3.51000	63.537	-0.150762
3.51167	63.554	-0.150753
3.51333	63.570	-0.150743
3.51500	63.586	-0.150730
3.51667	63.603	-0.150716
3.51833	63.619	-0.150700
3.52000	63.637	-0.150684
3.52167	63.654	-0.150669
3.52333	63.670	-0.150653
3.52500	63.686	-0.150639
3.52667	63.704	-0.150625
3.52833	63.721	-0.150610
3.53000	63.737	-0.150595
3.53167	63.753	-0.150578
3.53333	63.769	-0.150559
3.53500	63.787	-0.150540
3.53667	63.804	-0.150522
3.53833	63.819	-0.150505
3.54000	63.836	-0.150492
3.54167	63.853	-0.150478
3.54333	63.870	-0.150463
3.54500	63.887	-0.150449
3.54667	63.903	-0.150435
3.54833	63.920	-0.150422
3.55000	63.936	-0.150409
3.55167	63.953	-0.150396
3.55333	63.970	-0.150381
3.55500	63.986	-0.150366
3.55667	64.003	-0.150349
3.55833	64.019	-0.150333
3.56000	64.036	-0.150317
3.56167	64.053	-0.150300
3.56333	64.069	-0.150284
3.56500	64.085	-0.150267
3.56667	64.102	-0.150253
3.56833	64.119	-0.150238
3.57000	64.135	-0.150224
3.57167	64.152	-0.150209
3.57333	64.169	-0.150195
3.57500	64.185	-0.150182
3.57667	64.202	-0.150169
3.57833	64.219	-0.150156
3.58000	64.236	-0.150140
3.58167	64.253	-0.150124
3.58333	64.269	-0.150107
3.58500	64.286	-0.150089
3.58667	64.303	-0.150068
3.58833	64.319	-0.150045
3.59000	64.335	-0.150026
3.59167	64.352	-0.150009
3.59333	64.368	-0.149993
3.59500	64.385	-0.149981
3.59667	64.401	-0.149970
3.59833	64.418	-0.149961
3.60000	64.434	-0.149951
3.60167	64.452	-0.149940
3.60333	64.468	-0.149926
3.60500	64.485	-0.149909
3.60667	64.502	-0.149892
3.60833	64.519	-0.149875
3.61000	64.535	-0.149861
3.61167	64.552	-0.149845
3.61333	64.568	-0.149828
3.61500	64.585	-0.149811
3.61667	64.602	-0.149795
3.61833	64.618	-0.149781
3.62000	64.635	-0.149768
3.62167	64.651	-0.149753
3.62333	64.667	-0.149738
3.62500	64.685	-0.149722
3.62667	64.702	-0.149708
3.62833	64.718	-0.149694
3.63000	64.735	-0.149679
3.63167	64.752	-0.149665
3.63333	64.768	-0.149650
3.63500	64.784	-0.149634
3.63667	64.801	-0.149618
3.63833	64.818	-0.149605
3.64000	64.835	-0.149592
3.64167	64.852	-0.149578
3.64333	64.867	-0.149565
3.64500	64.885	-0.149552
3.64667	64.901	-0.149540
3.64833	64.917	-0.149527
3.65000	64.934	-0.149518
3.65167	64.950	-0.149506
3.65333	64.967	-0.149492
3.65500	64.984	-0.149478
3.65667	65.000	-0.149464
3.65833	65.017	-0.149447
3.66000	65.034	-0.149429
3.66167	65.051	-0.149412
3.66333	65.068	-0.149395
3.66500	65.084	-0.149382
3.66667	65.100	-0.149373
3.66833	65.117	-0.149364
3.67000	65.133	-0.149357
3.67167	65.150	-0.149349
3.67333	65.167	-0.149340
3.67500	65.183	-0.149331
3.67667	65.200	-0.149323
3.67833	65.216	-0.149313
3.68000	65.233	-0.149305
3.68167	65.249	-0.149296
3.68333	65.266	-0.149286
3.68500	65.283	-0.149275
3.68667	65.300	-0.149263
3.68833	65.316	-0.149250
3.69000	65.333	-0.149233
3.69167	65.350	-0.149217
3.69333	65.367	-0.149204
3.69500	65.384	-0.149191
3.69667	65.401	-0.149179
3.69833	65.417	-0.149167
3.70000	65.433	-0.149159
3.70167	65.450	-0.149150
3.70333	65.467	-0.149143
3.70500	65.483	-0.149138
3.70667	65.500	-0.149130
3.70833	65.516	-0.149121
3.71000	65.533	-0.149111
3.71167	65.550	-0.149101
3.71333	65.565	-0.149090
3.71500	65.582	-0.149078
3.71667	65.599	-0.149065
3.71833	65.615	-0.149050
3.72000	65.632	-0.149035
3.72167	65.648	-0.149023
3.72333	65.665	-0.149012
3.72500	65.682	-0.149004
3.72667	65.699	-0.148999
3.72833	65.716	-0.148995
3.73000	65.732	-0.148991
3.73167	65.748	-0.148986
3.73333	65.765	-0.148981
3.73500	65.783	-0.148975
3.73667	65.798	-0.148970
3.73833	65.815	-0.148965
3.74000	65.831	-0.148958
3.74167	65.849	-0.148949
3.74333	65.866	-0.148941
3.74500	65.882	-0.148931
3.74667	65.898	-0.148921
3.74833	65.916	-0.148911
3.75000	65.933	-0.148905
3.75167	65.948	-0.148899
3.75333	65.966	-0.148893
3.75500	65.982	-0.148885
3.75667	65.999	-0.148876
3.75833	66.016	-0.148868
3.76000	66.031	-0.148861
3.76167	66.048	-0.148854
3.76333	66.065	-0.148847
3.76500	66.081	-0.148841
3.76667	66.097	-0.148836
3.76833	66.114	-0.148837
3.77000	66.131	-0.148844
3.77167	66.147	-0.148851
3.77333	66.165	-0.148860
3.77500	66.181	-0.148865
3.77667	66.198	-0.148870
3.77833	66.214	-0.148873
3.78000	66.231	-0.148874
3.78167	66.248	-0.148873
3.78333	66.264	-0.148872
3.78500	66.281	-0.148870
3.78667	66.298	-0.148869
3.78833	66.315	-0.148865
3.79000	66.331	-0.148858
3.79167	66.348	-0.148852
3.79333	66.363	-0.148850
3.79500	66.380	-0.148850
3.79667	66.397	-0.148851
3.79833	66.413	-0.148854
3.80000	66.430	-0.148856
3.80167	66.447	-0.148859
3.80333	66.464	-0.148863
3.80500	66.480	-0.148871
3.80667	66.497	-0.148876
3.80833	66.514	-0.148885
3.81000	66.531	-0.148890
3.81167	66.547	-0.148895
3.81333	66.564	-0.148905
3.81500	66.579	-0.148928
3.81667	66.596	-0.148947
3.81833	66.613	-0.148954
3.82000	66.630	-0.148960
3.82167	66.646	-0.148963
3.82333	66.663	-0.148965
3.82500	66.680	-0.148966
3.82667	66.696	-0.148969
3.82833	66.711	-0.148970
3.83000	66.730	-0.148972
3.83167	66.747	-0.148976
3.83333	66.763	-0.148982
3.83500	66.779	-0.149002
3.83667	66.795	-0.149014
3.83833	66.813	-0.149030
3.84000	66.829	-0.149038
3.84167	66.846	-0.149045
3.84333	66.861	-0.149051
3.84500	66.879	-0.149062
3.84667	66.896	-0.149072
3.84833	66.912	-0.149082
3.85000	66.929	-0.149100
3.85167	66.946	-0.149132
3.85333	66.962	-0.149186
3.85500	66.979	-0.149251
3.85667	66.995	-0.149309
3.85833	67.011	-0.149347
3.86000	67.027	-0.149378
3.86167	67.044	-0.149396
3.86333	67.061	-0.149414
3.86500	67.077	-0.149426
3.86667	67.093	-0.149437
3.86833	67.110	-0.149452
3.87000	67.127	-0.149470
3.87167	67.144	-0.149490
3.87333	67.161	-0.149512
3.87500	67.178	-0.149530
3.87667	67.193	-0.149559
3.87833	67.211	-0.149599
3.88000	67.227	-0.149643
3.88167	67.243	-0.149697
3.88333	67.260	-0.149728
3.88500	67.277	-0.149798
3.88667	67.294	-0.149880
3.88833	67.311	-0.149986
3.89000	67.327	-0.150092
3.89167	67.344	-0.150168
3.89333	67.360	-0.150203
3.89500	67.376	-0.150241
3.89667	67.394	-0.150266
3.89833	67.411	-0.150294
3.90000	67.427	-0.150331
3.90167	67.443	-0.150368
3.90333	67.460	-0.150408
3.90500	67.477	-0.150459
3.90667	67.494	-0.150537
3.90833	67.510	-0.150609
3.91000	67.527	-0.150701
3.91167	67.543	-0.150803
3.91333	67.559	-0.150930
3.91500	67.576	-0.151106
3.91667	67.592	-0.151260
3.91833	67.610	-0.151397
3.92000	67.626	-0.151504
3.92167	67.642	-0.151641
3.92333	67.659	-0.151746
3.92500	67.675	-0.151828
3.92667	67.693	-0.151871
3.92833	67.709	-0.151918
3.93000	67.726	-0.151980
3.93167	67.741	-0.152027
3.93333	67.759	-0.152106
3.93500	67.775	-0.152211
3.93667	67.792	-0.152295
3.93833	67.808	-0.152384
3.94000	67.825	-0.152515
3.94167	67.842	-0.152650
3.94333	67.859	-0.152754
3.94500	67.874	-0.152866
3.94667	67.892	-0.152998
3.94833	67.908	-0.153280
3.95000	67.924	-0.153692
3.95167	67.940	-0.154074
3.95333	67.958	-0.154402
3.95500	67.972	-0.154590
3.95667	67.990	-0.154732
3.95833	68.007	-0.154872
3.96000	68.024	-0.155043
3.96167	68.040	-0.155132
3.96333	68.058	-0.155202
3.96500	68.074	-0.155256
3.96667	68.090	-0.155335
3.96833	68.107	-0.155450
3.97000	68.124	-0.155639
3.97167	68.140	-0.155888
3.97333	68.157	-0.156067
3.97500	68.173	-0.156232
3.97667	68.190	-0.156333
3.97833	68.207	-0.156462
3.98000	68.223	-0.156569
3.98167	68.240	-0.156677
3.98333	68.257	-0.156777
3.98500	68.273	-0.156849
3.98667	68.289	-0.156971
3.98833	68.306	-0.157132
3.99000	68.323	-0.157384
3.99167	68.339	-0.157602
3.99333	68.356	-0.157863
3.99500	68.373	-0.158111
3.99667	68.390	-0.158514
3.99833	68.406	-0.158906
4.00000	68.422	-0.159214
4.00167	68.439	-0.159471
4.00333	68.456	-0.159661
4.00500	68.473	-0.159883
4.00667	68.489	-0.160032
4.00833	68.505	-0.160154
4.01000	68.523	-0.160203
4.01167	68.539	-0.160245
4.01333	68.555	-0.160306
4.01500	68.571	-0.160396
4.01667	68.589	-0.160527
4.01833	68.605	-0.160667
4.02000	68.622	-0.160775
4.02167	68.638	-0.160949
4.02333	68.656	-0.161168
4.02500	68.672	-0.161371
4.02667	68.689	-0.161573
4.02833	68.705	-0.161787
4.03000	68.721	-0.161962
4.03167	68.738	-0.162157
4.03333	68.754	-0.162366
4.03500	68.772	-0.162648
4.03667	68.789	-0.162925
4.03833	68.804	-0.163160
4.04000	68.821	-0.163405
4.04167	68.837	-0.163600
4.04333	68.855	-0.163803
4.04500	68.871	-0.164032
4.04667	68.888	-0.164344
4.04833	68.904	-0.164612
4.05000	68.921	-0.164873
4.05167	68.937	-0.165083
4.05333	68.954	-0.165301
4.05500	68.970	-0.165525
4.05667	68.987	-0.165722
4.05833	69.003	-0.165912
4.06000	69.020	-0.166056
4.06167	69.036	-0.166194
4.06333	69.054	-0.166368
4.06500	69.070	-0.166559
4.06667	69.087	-0.166707
4.06833	69.104	-0.166945
4.07000	69.120	-0.167148
4.07167	69.137	-0.167257
4.07333	69.153	-0.167363
4.07500	69.170	-0.167429
4.07667	69.186	-0.167475
4.07833	69.203	-0.167543
4.08000	69.219	-0.167667
4.08167	69.236	-0.167905
4.08333	69.252	-0.168264
4.08500	69.269	-0.168583
4.08667	69.286	-0.168879
4.08833	69.303	-0.169204
4.09000	69.319	-0.169575
4.09167	69.336	-0.169941
4.09333	69.353	-0.170219
4.09500	69.368	-0.170438
4.09667	69.386	-0.170639
4.09833	69.402	-0.170828
4.10000	69.419	-0.171016
4.10167	69.435	-0.171233
4.10333	69.453	-0.171340
4.10500	69.469	-0.171402
4.10667	69.486	-0.171443
4.10833	69.502	-0.171518
4.11000	69.520	-0.171612
4.11167	69.536	-0.171712
4.11333	69.553	-0.171867
4.11500	69.569	-0.172062
4.11667	69.586	-0.172257
4.11833	69.602	-0.172515
4.12000	69.619	-0.172794
4.12167	69.634	-0.173045
4.12333	69.651	-0.173377
4.12500	69.667	-0.173699
4.12667	69.685	-0.174009
4.12833	69.701	-0.174349
4.13000	69.718	-0.174665
4.13167	69.735	-0.175000
4.13333	69.752	-0.175257
4.13500	69.768	-0.175413
4.13667	69.785	-0.175592
4.13833	69.802	-0.175738
4.14000	69.818	-0.175884
4.14167	69.835	-0.176070
4.14333	69.851	-0.176239
4.14500	69.868	-0.176412
4.14667	69.885	-0.176584
4.14833	69.902	-0.176768
4.15000	69.918	-0.176920
4.15167	69.935	-0.176996
4.15333	69.951	-0.177041
4.15500	69.969	-0.177134
4.15667	69.984	-0.177212
4.15833	70.001	-0.177315
4.16000	70.018	-0.177460
4.16167	70.035	-0.177654
4.16333	70.050	-0.177862
4.16500	70.068	-0.178100
4.16667	70.084	-0.178361
4.16833	70.101	-0.178574
4.17000	70.118	-0.178802
4.17167	70.135	-0.179082
4.17333	70.151	-0.179373
4.17500	70.168	-0.179591
4.17667	70.183	-0.179809
4.17833	70.200	-0.179998
4.18000	70.218	-0.180173
4.18167	70.234	-0.180285
4.18333	70.250	-0.180414
4.18500	70.266	-0.180507
4.18667	70.283	-0.180560
4.18833	70.300	-0.180645
4.19000	70.317	-0.180799
4.19167	70.334	-0.180988
4.19333	70.351	-0.181168
4.19500	70.368	-0.181284
4.19667	70.384	-0.181408
4.19833	70.400	-0.181538
4.20000	70.417	-0.181633
4.20167	70.434	-0.181704
4.20333	70.449	-0.181747
4.20500	70.467	-0.181765
4.20667	70.484	-0.181799
4.20833	70.501	-0.181846
4.21000	70.516	-0.181940
4.21167	70.533	-0.182072
4.21333	70.550	-0.182195
4.21500	70.567	-0.182376
4.21667	70.584	-0.182636
4.21833	70.600	-0.182878
4.22000	70.617	-0.183102
4.22167	70.633	-0.183255
4.22333	70.650	-0.183345
4.22500	70.667	-0.183441
4.22667	70.683	-0.183531
4.22833	70.701	-0.183597
4.23000	70.716	-0.183674
4.23167	70.733	-0.183764
4.23333	70.750	-0.183908
4.23500	70.766	-0.184043
4.23667	70.782	-0.184208
4.23833	70.799	-0.184422
4.24000	70.817	-0.184598
4.24167	70.834	-0.184707
4.24333	70.850	-0.184801
4.24500	70.866	-0.184869
4.24667	70.883	-0.184948
4.24833	70.900	-0.185017
4.25000	70.915	-0.185097
4.25167	70.932	-0.185177
4.25333	70.950	-0.185251
4.25500	70.966	-0.185346
4.25667	70.981	-0.185448
4.25833	70.999	-0.185573
4.26000	71.016	-0.185672
4.26167	71.034	-0.185762
4.26333	71.050	-0.185797
4.26500	71.067	-0.185851
4.26667	71.083	-0.185928
4.26833	71.100	-0.186003
4.27000	71.116	-0.186057
4.27167	71.132	-0.186094
4.27333	71.149	-0.186115
4.27500	71.166	-0.186145
4.27667	71.182	-0.186190
4.27833	71.199	-0.186238
4.28000	71.217	-0.186309
4.28167	71.233	-0.186384
4.28333	71.250	-0.186511
4.28500	71.265	-0.186710
4.28667	71.284	-0.186895
4.28833	71.300	-0.187063
4.29000	71.316	-0.187168
4.29167	71.333	-0.187236
4.29333	71.350	-0.187291
4.29500	71.366	-0.187333
4.29667	71.383	-0.187365
4.29833	71.399	-0.187410
4.30000	71.416	-0.187433
4.30167	71.432	-0.187452
4.30333	71.450	-0.187481
4.30500	71.466	-0.187523
4.30667	71.483	-0.187550
4.30833	71.499	-0.187576
4.31000	71.516	-0.187595
4.31167	71.532	-0.187624
4.31333	71.550	-0.187664
4.31500	71.566	-0.187710
4.31667	71.582	-0.187758
4.31833	71.600	-0.187798
4.32000	71.616	-0.187822
4.32167	71.633	-0.187844
4.32333	71.649	-0.187885
4.32500	71.667	-0.187917
4.32667	71.684	-0.187938
4.32833	71.700	-0.187952
4.33000	71.717	-0.187981
4.33167	71.734	-0.188029
4.33333	71.750	-0.188081
4.33500	71.767	-0.188129
4.33667	71.782	-0.188170
4.33833	71.800	-0.188193
4.34000	71.817	-0.188209
4.34167	71.833	-0.188221
4.34333	71.850	-0.188235
4.34500	71.867	-0.188248
4.34667	71.883	-0.188281
4.34833	71.900	-0.188321
4.35000	71.916	-0.188332
4.35167	71.934	-0.188344
4.35333	71.951	-0.188357
4.35500	71.967	-0.188369
4.35667	71.983	-0.188380
4.35833	72.001	-0.188391
4.36000	72.017	-0.188410
4.36167	72.034	-0.188420
4.36333	72.050	-0.188435
4.36500	72.068	-0.188463
4.36667	72.084	-0.188480
4.36833	72.100	-0.188517
4.37000	72.118	-0.188595
4.37167	72.134	-0.188662
4.37333	72.151	-0.188711
4.37500	72.168	-0.188767
4.37667	72.185	-0.188824
4.37833	72.200	-0.188856
4.38000	72.218	-0.188870
4.38167	72.234	-0.188883
4.38333	72.251	-0.188896
4.38500	72.268	-0.188919
4.38667	72.284	-0.188935
4.38833	72.300	-0.188944
4.39000	72.317	-0.188953
4.39167	72.334	-0.188961
4.39333	72.351	-0.188972
4.39500	72.367	-0.188984
4.39667	72.384	-0.188998
4.39833	72.401	-0.189010
4.40000	72.418	-0.189022
4.40167	72.435	-0.189034
4.40333	72.452	-0.189049
4.40500	72.468	-0.189064
4.40667	72.484	-0.189078
4.40833	72.501	-0.189092
4.41000	72.518	-0.189106
4.41167	72.534	-0.189121
4.41333	72.551	-0.189137
4.41500	72.568	-0.189153
4.41667	72.585	-0.189168
4.41833	72.602	-0.189183
4.42000	72.618	-0.189197
4.42167	72.635	-0.189209
4.42333	72.652	-0.189218
4.42500	72.669	-0.189227
4.42667	72.686	-0.189237
4.42833	72.703	-0.189249
4.43000	72.719	-0.189262
4.43167	72.736	-0.189275
4.43333	72.752	-0.189291
4.43500	72.769	-0.189307
4.43667	72.786	-0.189323
4.43833	72.803	-0.189340
4.44000	72.820	-0.189354
4.44167	72.837	-0.189363
4.44333	72.853	-0.189367
4.44500	72.871	-0.189370
4.44667	72.887	-0.189372
4.44833	72.903	-0.189373
4.45000	72.921	-0.189375
4.45167	72.937	-0.189377
4.45333	72.954	-0.189380
4.45500	72.969	-0.189381
4.45667	72.986	-0.189384
4.45833	73.003	-0.189389
4.46000	73.020	-0.189394
4.46167	73.037	-0.189397
4.46333	73.054	-0.189400
4.46500	73.070	-0.189404
4.46667	73.087	-0.189409
4.46833	73.105	-0.189416
4.47000	73.121	-0.189424
4.47167	73.138	-0.189432
4.47333	73.155	-0.189441
4.47500	73.171	-0.189447
4.47667	73.188	-0.189452
4.47833	73.205	-0.189457
4.48000	73.221	-0.189462
4.48167	73.238	-0.189466
4.48333	73.256	-0.189472
4.48500	73.272	-0.189478
4.48667	73.288	-0.189483
4.48833	73.304	-0.189489
4.49000	73.322	-0.189496
4.49167	73.339	-0.189502
4.49333	73.356	-0.189504
4.49500	73.373	-0.189504
4.49667	73.389	-0.189503
4.49833	73.406	-0.189499
4.50000	73.423	-0.189485
4.50167	73.439	-0.189482
4.50333	73.455	-0.189476
4.50500	73.473	-0.189458
4.50667	73.489	-0.189444
4.50833	73.506	-0.189432
4.51000	73.523	-0.189419
4.51167	73.540	-0.189411
4.51333	73.557	-0.189404
4.51500	73.573	-0.189399
4.51667	73.591	-0.189396
4.51833	73.606	-0.189394
4.52000	73.623	-0.189393
4.52167	73.640	-0.189395
4.52333	73.657	-0.189394
4.52500	73.674	-0.189391
4.52667	73.690	-0.189389
4.52833	73.707	-0.189385
4.53000	73.723	-0.189380
4.53167	73.741	-0.189376
4.53333	73.758	-0.189370
4.53500	73.775	-0.189364
4.53667	73.792	-0.189344
4.53833	73.809	-0.189321
4.54000	73.825	-0.189305
4.54167	73.841	-0.189285
4.54333	73.858	-0.189265
4.54500	73.875	-0.189249
4.54667	73.892	-0.189240
4.54833	73.909	-0.189232
4.55000	73.925	-0.189224
4.55167	73.942	-0.189216
4.55333	73.959	-0.189205
4.55500	73.976	-0.189197
4.55667	73.992	-0.189191
4.55833	74.009	-0.189185
4.56000	74.027	-0.189176
4.56167	74.042	-0.189167
4.56333	74.059	-0.189159
4.56500	74.076	-0.189151
4.56667	74.092	-0.189143
4.56833	74.110	-0.189135
4.57000	74.126	-0.189124
4.57167	74.143	-0.189111
4.57333	74.159	-0.189099
4.57500	74.176	-0.189083
4.57667	74.193	-0.189070
4.57833	74.210	-0.189054
4.58000	74.227	-0.189040
4.58167	74.243	-0.189023
4.58333	74.261	-0.189001
4.58500	74.276	-0.188979
4.58667	74.293	-0.188954
4.58833	74.310	-0.188921
4.59000	74.327	-0.188893
4.59167	74.344	-0.188873
4.59333	74.362	-0.188853
4.59500	74.378	-0.188837
4.59667	74.394	-0.188822
4.59833	74.411	-0.188808
4.60000	74.428	-0.188793
4.60167	74.445	-0.188779
4.60333	74.462	-0.188765
4.60500	74.479	-0.188752
4.60667	74.495	-0.188736
4.60833	74.512	-0.188715
4.61000	74.529	-0.188699
4.61167	74.546	-0.188684
4.61333	74.562	-0.188666
4.61500	74.578	-0.188641
4.61667	74.595	-0.188622
4.61833	74.612	-0.188606
4.62000	74.629	-0.188590
4.62167	74.646	-0.188574
4.62333	74.662	-0.188559
4.62500	74.680	-0.188542
4.62667	74.696	-0.188507
4.62833	74.713	-0.188468
4.63000	74.730	-0.188437
4.63167	74.748	-0.188402
4.63333	74.764	-0.188363
4.63500	74.780	-0.188344
4.63667	74.797	-0.188327
4.63833	74.814	-0.188309
4.64000	74.830	-0.188292
4.64167	74.847	-0.188275
4.64333	74.864	-0.188257
4.64500	74.880	-0.188238
4.64667	74.898	-0.188204
4.64833	74.913	-0.188169
4.65000	74.930	-0.188143
4.65167	74.947	-0.188121
4.65333	74.964	-0.188102
4.65500	74.981	-0.188085
4.65667	74.998	-0.188066
4.65833	75.014	-0.188049
4.66000	75.031	-0.188031
4.66167	75.048	-0.188012
4.66333	75.066	-0.187993
4.66500	75.082	-0.187973
4.66667	75.098	-0.187954
4.66833	75.115	-0.187935
4.67000	75.132	-0.187916
4.67167	75.148	-0.187897
4.67333	75.165	-0.187877
4.67500	75.182	-0.187858
4.67667	75.199	-0.187838
4.67833	75.215	-0.187816
4.68000	75.233	-0.187782
4.68167	75.249	-0.187739
4.68333	75.266	-0.187672
4.68500	75.283	-0.187602
4.68667	75.300	-0.187555
4.68833	75.316	-0.187501
4.69000	75.333	-0.187468
4.69167	75.350	-0.187446
4.69333	75.367	-0.187421
4.69500	75.384	-0.187404
4.69667	75.400	-0.187388
4.69833	75.416	-0.187376
4.70000	75.433	-0.187361
4.70167	75.450	-0.187344
4.70333	75.466	-0.187327
4.70500	75.482	-0.187308
4.70667	75.500	-0.187286
4.70833	75.517	-0.187254
4.71000	75.533	-0.187230
4.71167	75.551	-0.187210
4.71333	75.567	-0.187189
4.71500	75.583	-0.187169
4.71667	75.600	-0.187149
4.71833	75.618	-0.187129
4.72000	75.634	-0.187108
4.72167	75.651	-0.187089
4.72333	75.668	-0.187072
4.72500	75.684	-0.187055
4.72667	75.701	-0.187038
4.72833	75.719	-0.187019
4.73000	75.734	-0.186998
4.73167	75.752	-0.186971
4.73333	75.770	-0.186941
4.73500	75.786	-0.186885
4.73667	75.802	-0.186814
4.73833	75.819	-0.186775
4.74000	75.835	-0.186742
4.74167	75.852	-0.186720
4.74333	75.869	-0.186700
4.74500	75.886	-0.186681
4.74667	75.902	-0.186662
4.74833	75.918	-0.186641
4.75000	75.936	-0.186622
4.75167	75.952	-0.186603
4.75333	75.969	-0.186582
4.75500	75.986	-0.186559
4.75667	76.003	-0.186536
4.75833	76.020	-0.186504
4.76000	76.035	-0.186469
4.76167	76.053	-0.186434
4.76333	76.070	-0.186410
4.76500	76.086	-0.186385
4.76667	76.104	-0.186359
4.76833	76.121	-0.186337
4.77000	76.137	-0.186315
4.77167	76.153	-0.186291
4.77333	76.170	-0.186262
4.77500	76.187	-0.186238
4.77667	76.203	-0.186213
4.77833	76.220	-0.186171
4.78000	76.236	-0.186118
4.78167	76.253	-0.186067
4.78333	76.270	-0.186004
4.78500	76.288	-0.185969
4.78667	76.303	-0.185945
4.78833	76.321	-0.185926
4.79000	76.337	-0.185905
4.79167	76.354	-0.185886
4.79333	76.370	-0.185868
4.79500	76.388	-0.185849
4.79667	76.404	-0.185831
4.79833	76.420	-0.185810
4.80000	76.438	-0.185788
4.80167	76.454	-0.185764
4.80333	76.471	-0.185741
4.80500	76.487	-0.185718
4.80667	76.504	-0.185695
4.80833	76.521	-0.185672
4.81000	76.538	-0.185647
4.81167	76.555	-0.185623
4.81333	76.573	-0.185599
4.81500	76.589	-0.185577
4.81667	76.605	-0.185555
4.81833	76.621	-0.185535
4.82000	76.639	-0.185512
4.82167	76.655	-0.185493
4.82333	76.671	-0.185473
4.82500	76.688	-0.185453
4.82667	76.706	-0.185433
4.82833	76.722	-0.185411
4.83000	76.740	-0.185388
4.83167	76.755	-0.185367
4.83333	76.773	-0.185344
4.83500	76.789	-0.185323
4.83667	76.806	-0.185304
4.83833	76.822	-0.185283
4.84000	76.840	-0.185263
4.84167	76.856	-0.185245
4.84333	76.872	-0.185225
4.84500	76.890	-0.185205
4.84667	76.906	-0.185187
4.84833	76.923	-0.185168
4.85000	76.940	-0.185150
4.85167	76.957	-0.185133
4.85333	76.973	-0.185115
4.85500	76.990	-0.185098
4.85667	77.006	-0.185081
4.85833	77.023	-0.185065
4.86000	77.040	-0.185049
4.86167	77.056	-0.185033
4.86333	77.073	-0.185015
4.86500	77.090	-0.184998
4.86667	77.107	-0.184980
4.86833	77.124	-0.184963
4.87000	77.140	-0.184949
4.87167	77.157	-0.184934
4.87333	77.173	-0.184917
4.87500	77.190	-0.184901
4.87667	77.207	-0.184885
4.87833	77.224	-0.184868
4.88000	77.241	-0.184849
4.88167	77.257	-0.184830
4.88333	77.273	-0.184810
4.88500	77.290	-0.184792
4.88667	77.308	-0.184775
4.88833	77.324	-0.184759
4.89000	77.340	-0.184741
4.89167	77.357	-0.184723
4.89333	77.375	-0.184708
4.89500	77.391	-0.184692
4.89667	77.408	-0.184677
4.89833	77.425	-0.184663
4.90000	77.441	-0.184651
4.90167	77.459	-0.184639
4.90333	77.474	-0.184629
4.90500	77.491	-0.184618
4.90667	77.508	-0.184609
4.90833	77.525	-0.184600
4.91000	77.541	-0.184590
4.91167	77.558	-0.184579
4.91333	77.575	-0.184568
4.91500	77.591	-0.184556
4.91667	77.608	-0.184545
4.91833	77.624	-0.184535
4.92000	77.642	-0.184525
4.92167	77.658	-0.184513
4.92333	77.676	-0.184501
4.92500	77.693	-0.184493
4.92667	77.710	-0.184487
4.92833	77.726	-0.184479
4.93000	77.742	-0.184472
4.93167	77.759	-0.184464
4.93333	77.776	-0.184453
4.93500	77.793	-0.184443
4.93667	77.810	-0.184434
4.93833	77.826	-0.184423
4.94000	77.842	-0.184411
4.94167	77.858	-0.184398
4.94333	77.876	-0.184387
4.94500	77.893	-0.184376
4.94667	77.909	-0.184367
4.94833	77.926	-0.184360
4.95000	77.942	-0.184355
4.95167	77.959	-0.184347
4.95333	77.975	-0.184339
4.95500	77.993	-0.184331
4.95667	78.009	-0.184323
4.95833	78.026	-0.184315
4.96000	78.043	-0.184308
4.96167	78.060	-0.184300
4.96333	78.077	-0.184291
4.96500	78.094	-0.184281
4.96667	78.110	-0.184274
4.96833	78.127	-0.184267
4.97000	78.143	-0.184262
4.97167	78.160	-0.184255
4.97333	78.177	-0.184246
4.97500	78.193	-0.184237
4.97667	78.209	-0.184228
4.97833	78.226	-0.184220
4.98000	78.243	-0.184213
4.98167	78.260	-0.184205
4.98333	78.276	-0.184198
4.98500	78.293	-0.184194
4.98667	78.310	-0.184191
4.98833	78.327	-0.184192
4.99000	78.343	-0.184192
4.99167	78.359	-0.184194
4.99333	78.377	-0.184193
4.99500	78.394	-0.184190
4.99667	78.411	-0.184185
4.99833	78.427	-0.184179
5.00000	78.443	-0.184173
5.00167	78.460	-0.184165
5.00333	78.477	-0.184158
5.00500	78.493	-0.184152
5.00667	78.511	-0.184150
5.00833	78.527	-0.184151
5.01000	78.543	-0.184157
5.01167	78.560	-0.184160
5.01333	78.577	-0.184160
5.01500	78.594	-0.184159
5.01667	78.611	-0.184156
5.01833	78.627	-0.184154
5.02000	78.644	-0.184153
5.02167	78.661	-0.184155
5.02333	78.678	-0.184155
5.02500	78.693	-0.184156
5.02667	78.710	-0.184158
5.02833	78.726	-0.184161
5.03000	78.744	-0.184163
5.03167	78.760	-0.184164
5.03333	78.778	-0.184163
5.03500	78.794	-0.184163
5.03667	78.810	-0.184164
5.03833	78.828	-0.184165
5.04000	78.845	-0.184166
5.04167	78.862	-0.184166
5.04333	78.878	-0.184166
5.04500	78.895	-0.184167
5.04667	78.911	-0.184171
5.04833	78.928	-0.184176
5.05000	78.945	-0.184181
5.05167	78.961	-0.184188
5.05333	78.978	-0.184202
5.05500	78.994	-0.184215
5.05667	79.011	-0.184222
5.05833	79.028	-0.184229
5.06000	79.045	-0.184235
5.06167	79.061	-0.184239
5.06333	79.078	-0.184242
5.06500	79.095	-0.184246
5.06667	79.112	-0.184251
5.06833	79.128	-0.184256
5.07000	79.143	-0.184261
5.07167	79.161	-0.184264
5.07333	79.178	-0.184263
5.07500	79.194	-0.184263
5.07667	79.211	-0.184265
5.07833	79.228	-0.184266
5.08000	79.244	-0.184267
5.08167	79.260	-0.184270
5.08333	79.279	-0.184277
5.08500	79.295	-0.184287
5.08667	79.312	-0.184296
5.08833	79.327	-0.184317
5.09000	79.344	-0.184332
5.09167	79.361	-0.184347
5.09333	79.378	-0.184376
5.09500	79.395	-0.184412
5.09667	79.412	-0.184447
5.09833	79.428	-0.184486
5.10000	79.444	-0.184506
5.10167	79.462	-0.184523
5.10333	79.478	-0.184535
5.10500	79.495	-0.184544
5.10667	79.512	-0.184552
5.10833	79.528	-0.184562
5.11000	79.545	-0.184572
5.11167	79.561	-0.184587
5.11333	79.579	-0.184604
5.11500	79.595	-0.184635
5.11667	79.612	-0.184684
5.11833	79.629	-0.184720
5.12000	79.645	-0.184757
5.12167	79.662	-0.184784
5.12333	79.678	-0.184795
5.12500	79.695	-0.184805
5.12667	79.710	-0.184814
5.12833	79.727	-0.184824
5.13000	79.744	-0.184834
5.13167	79.761	-0.184844
5.13333	79.779	-0.184854
5.13500	79.795	-0.184866
5.13667	79.811	-0.184885
5.13833	79.828	-0.184917
5.14000	79.844	-0.184978
5.14167	79.862	-0.185071
5.14333	79.878	-0.185186
5.14500	79.895	-0.185316
5.14667	79.911	-0.185416
5.14833	79.928	-0.185493
5.15000	79.945	-0.185520
5.15167	79.962	-0.185548
5.15333	79.978	-0.185573
5.15500	79.995	-0.185586
5.15667	80.011	-0.185599
5.15833	80.028	-0.185614
5.16000	80.044	-0.185645
5.16167	80.062	-0.185671
5.16333	80.077	-0.185701
5.16500	80.094	-0.185741
5.16667	80.111	-0.185768
5.16833	80.128	-0.185784
5.17000	80.144	-0.185804
5.17167	80.161	-0.185821
5.17333	80.178	-0.185840
5.17500	80.195	-0.185854
5.17667	80.212	-0.185868
5.17833	80.228	-0.185889
5.18000	80.245	-0.185906
5.18167	80.261	-0.185930
5.18333	80.279	-0.185950
5.18500	80.295	-0.185973
5.18667	80.312	-0.185993
5.18833	80.328	-0.186010
5.19000	80.346	-0.186028
5.19167	80.362	-0.186056
5.19333	80.377	-0.186094
5.19500	80.395	-0.186127
5.19667	80.411	-0.186204
5.19833	80.429	-0.186295
5.20000	80.445	-0.186380
5.20167	80.463	-0.186465
5.20333	80.479	-0.186538
5.20500	80.494	-0.186584
5.20667	80.511	-0.186607
5.20833	80.528	-0.186626
5.21000	80.544	-0.186645
5.21167	80.561	-0.186664
5.21333	80.578	-0.186692
5.21500	80.595	-0.186728
5.21667	80.612	-0.186775
5.21833	80.628	-0.186826
5.22000	80.646	-0.186890
5.22167	80.662	-0.186944
5.22333	80.679	-0.186993
5.22500	80.694	-0.187085
5.22667	80.711	-0.187201
5.22833	80.729	-0.187315
5.23000	80.745	-0.187431
5.23167	80.762	-0.187544
5.23333	80.779	-0.187717
5.23500	80.794	-0.187856
5.23667	80.811	-0.187965
5.23833	80.828	-0.188025
5.24000	80.846	-0.188065
5.24167	80.862	-0.188088
5.24333	80.878	-0.188119
5.24500	80.895	-0.188149
5.24667	80.912	-0.188174
5.24833	80.928	-0.188238
5.25000	80.946	-0.188281
5.25167	80.962	-0.188344
5.25333	80.978	-0.188420
5.25500	80.995	-0.188510
5.25667	81.012	-0.188603
5.25833	81.029	-0.188707
5.26000	81.045	-0.188784
5.26167	81.062	-0.188846
5.26333	81.078	-0.188905
5.26500	81.095	-0.188946
5.26667	81.111	-0.188975
5.26833	81.128	-0.188998
5.27000	81.145	-0.189024
5.27167	81.161	-0.189064
5.27333	81.178	-0.189120
5.27500	81.195	-0.189217
5.27667	81.211	-0.189333
5.27833	81.228	-0.189462
5.28000	81.245	-0.189647
5.28167	81.262	-0.189838
5.28333	81.279	-0.190044
5.28500	81.295	-0.190176
5.28667	81.312	-0.190278
5.28833	81.328	-0.190354
5.29000	81.344	-0.190419
5.29167	81.361	-0.190479
5.29333	81.378	-0.190531
5.29500	81.395	-0.190584
5.29667	81.412	-0.190633
5.29833	81.428	-0.190709
5.30000	81.445	-0.190756
5.30167	81.461	-0.190799
5.30333	81.478	-0.190840
5.30500	81.493	-0.190905
5.30667	81.512	-0.190962
5.30833	81.527	-0.191046
5.31000	81.544	-0.191167
5.31167	81.561	-0.191293
5.31333	81.577	-0.191455
5.31500	81.594	-0.191644
5.31667	81.611	-0.191798
5.31833	81.627	-0.191926
5.32000	81.644	-0.192013
5.32167	81.661	-0.192084
5.32333	81.677	-0.192153
5.32500	81.694	-0.192227
5.32667	81.711	-0.192321
5.32833	81.727	-0.192481
5.33000	81.744	-0.192673
5.33167	81.760	-0.192948
5.33333	81.778	-0.193236
5.33500	81.794	-0.193493
5.33667	81.811	-0.193689
5.33833	81.828	-0.193791
5.34000	81.845	-0.193885
5.34167	81.860	-0.193945
5.34333	81.878	-0.194029
5.34500	81.895	-0.194121
5.34667	81.911	-0.194240
5.34833	81.927	-0.194391
5.35000	81.943	-0.194561
5.35167	81.960	-0.194781
5.35333	81.976	-0.195036
5.35500	81.994	-0.195250
5.35667	82.010	-0.195380
5.35833	82.027	-0.195495
5.36000	82.043	-0.195655
5.36167	82.060	-0.195875
5.36333	82.078	-0.196050
5.36500	82.094	-0.196205
5.36667	82.110	-0.196340
5.36833	82.127	-0.196468
5.37000	82.143	-0.196612
5.37167	82.160	-0.196770
5.37333	82.176	-0.196954
5.37500	82.192	-0.197095
5.37667	82.210	-0.197225
5.37833	82.226	-0.197367
5.38000	82.243	-0.197493
5.38167	82.259	-0.197618
5.38333	82.276	-0.197705
5.38500	82.293	-0.197804
5.38667	82.310	-0.197925
5.38833	82.326	-0.198076
5.39000	82.342	-0.198250
5.39167	82.359	-0.198469
5.39333	82.376	-0.198620
5.39500	82.394	-0.198768
5.39667	82.409	-0.198936
5.39833	82.426	-0.199056
5.40000	82.443	-0.199187
5.40167	82.459	-0.199304
5.40333	82.476	-0.199425
5.40500	82.492	-0.199615
5.40667	82.509	-0.199795
5.40833	82.526	-0.199996
5.41000	82.543	-0.200151
5.41167	82.559	-0.200302
5.41333	82.577	-0.200440
5.41500	82.593	-0.200569
5.41667	82.610	-0.200704
5.41833	82.626	-0.200896
5.42000	82.643	-0.201164
5.42167	82.659	-0.201396
5.42333	82.676	-0.201652
5.42500	82.692	-0.201843
5.42667	82.709	-0.202048
5.42833	82.726	-0.202246
5.43000	82.742	-0.202451
5.43167	82.758	-0.202588
5.43333	82.774	-0.202660
5.43500	82.791	-0.202741
5.43667	82.808	-0.202855
5.43833	82.825	-0.202975
5.44000	82.842	-0.203081
5.44167	82.858	-0.203150
5.44333	82.875	-0.203192
5.44500	82.891	-0.203252
5.44667	82.907	-0.203368
5.44833	82.925	-0.203512
5.45000	82.943	-0.203641
5.45167	82.958	-0.203793
5.45333	82.975	-0.204037
5.45500	82.992	-0.204282
5.45667	83.008	-0.204470
5.45833	83.025	-0.204581
5.46000	83.042	-0.204658
5.46167	83.058	-0.204705
5.46333	83.074	-0.204755
5.46500	83.091	-0.204789
5.46667	83.108	-0.204832
5.46833	83.125	-0.204878
5.47000	83.141	-0.204940
5.47167	83.158	-0.205056
5.47333	83.175	-0.205226
5.47500	83.191	-0.205455
5.47667	83.208	-0.205716
5.47833	83.224	-0.206053
5.48000	83.241	-0.206433
5.48167	83.258	-0.206723
5.48333	83.274	-0.206913
5.48500	83.291	-0.207053
5.48667	83.307	-0.207169
5.48833	83.325	-0.207314
5.49000	83.341	-0.207458
5.49167	83.358	-0.207610
5.49333	83.374	-0.207740
5.49500	83.390	-0.207894
5.49667	83.407	-0.208132
5.49833	83.424	-0.208396
5.50000	83.440	-0.208581
5.50167	83.457	-0.208710
5.50333	83.473	-0.208799
5.50500	83.491	-0.208862
5.50667	83.507	-0.208952
5.50833	83.523	-0.209060
5.51000	83.539	-0.209178
5.51167	83.556	-0.209296
5.51333	83.573	-0.209423
5.51500	83.590	-0.209621
5.51667	83.606	-0.209841
5.51833	83.623	-0.210035
5.52000	83.639	-0.210163
5.52167	83.656	-0.210293
5.52333	83.673	-0.210431
5.52500	83.690	-0.210618
5.52667	83.707	-0.210805
5.52833	83.723	-0.211019
5.53000	83.740	-0.211373
5.53167	83.756	-0.211753
5.53333	83.772	-0.212149
5.53500	83.789	-0.212576
5.53667	83.806	-0.212949
5.53833	83.821	-0.213119
5.54000	83.838	-0.213220
5.54167	83.856	-0.213284
5.54333	83.872	-0.213357
5.54500	83.889	-0.213429
5.54667	83.905	-0.213535
5.54833	83.922	-0.213718
5.55000	83.939	-0.214076
5.55167	83.956	-0.214484
5.55333	83.972	-0.214851
5.55500	83.988	-0.215184
5.55667	84.005	-0.215423
5.55833	84.021	-0.215623
5.56000	84.037	-0.215741
5.56167	84.054	-0.215901
5.56333	84.070	-0.216126
5.56500	84.087	-0.216381
5.56667	84.104	-0.216694
5.56833	84.121	-0.217060
5.57000	84.138	-0.217303
5.57167	84.153	-0.217519
5.57333	84.170	-0.217678
5.57500	84.187	-0.217798
5.57667	84.202	-0.217881
5.57833	84.220	-0.217986
5.58000	84.237	-0.218070
5.58167	84.254	-0.218235
5.58333	84.270	-0.218395
5.58500	84.287	-0.218576
5.58667	84.302	-0.218747
5.58833	84.320	-0.218908
5.59000	84.336	-0.219053
5.59167	84.353	-0.219121
5.59333	84.369	-0.219178
5.59500	84.386	-0.219249
5.59667	84.402	-0.219365
5.59833	84.419	-0.219530
5.60000	84.435	-0.219727
5.60167	84.452	-0.219888
5.60333	84.468	-0.219994
5.60500	84.485	-0.220070
5.60667	84.502	-0.220170
5.60833	84.518	-0.220252
5.61000	84.534	-0.220292
5.61167	84.551	-0.220324
5.61333	84.568	-0.220374
5.61500	84.585	-0.220426
5.61667	84.600	-0.220483
5.61833	84.617	-0.220567
5.62000	84.634	-0.220696
5.62167	84.650	-0.220815
5.62333	84.667	-0.220926
5.62500	84.684	-0.221034
5.62667	84.701	-0.221099
5.62833	84.718	-0.221145
5.63000	84.734	-0.221168
5.63167	84.751	-0.221205
5.63333	84.767	-0.221243
5.63500	84.784	-0.221264
5.63667	84.800	-0.221299
5.63833	84.817	-0.221353
5.64000	84.833	-0.221400
5.64167	84.851	-0.221457
5.64333	84.867	-0.221531
5.64500	84.883	-0.221628
5.64667	84.901	-0.221699
5.64833	84.916	-0.221764
5.65000	84.933	-0.221821
5.65167	84.951	-0.221867
5.65333	84.968	-0.221922
5.65500	84.984	-0.221968
5.65667	85.000	-0.222012
5.65833	85.016	-0.222057
5.66000	85.033	-0.222105
5.66167	85.050	-0.222136
5.66333	85.066	-0.222163
5.66500	85.083	-0.222191
5.66667	85.100	-0.222202
5.66833	85.117	-0.222231
5.67000	85.134	-0.222252
5.67167	85.150	-0.222292
5.67333	85.167	-0.222299
5.67500	85.183	-0.222315
5.67667	85.200	-0.222341
5.67833	85.217	-0.222398
5.68000	85.234	-0.222509
5.68167	85.250	-0.222620
5.68333	85.267	-0.222743
5.68500	85.284	-0.222877
5.68667	85.300	-0.222945
5.68833	85.317	-0.222980
5.69000	85.334	-0.223015
5.69167	85.350	-0.223038
5.69333	85.366	-0.223059
5.69500	85.383	-0.223073
5.69667	85.401	-0.223086
5.69833	85.416	-0.223119
5.70000	85.434	-0.223176
5.70167	85.450	-0.223251
5.70333	85.466	-0.223381
5.70500	85.483	-0.223541
5.70667	85.499	-0.223679
5.70833	85.515	-0.223861
5.71000	85.533	-0.224065
5.71167	85.549	-0.224281
5.71333	85.566	-0.224401
5.71500	85.582	-0.224505
5.71667	85.599	-0.224605
5.71833	85.616	-0.224685
5.72000	85.633	-0.224768
5.72167	85.650	-0.224860
5.72333	85.665	-0.224986
5.72500	85.682	-0.225087
5.72667	85.698	-0.225204
5.72833	85.715	-0.225347
5.73000	85.732	-0.225526
5.73167	85.749	-0.225665
5.73333	85.766	-0.225810
5.73500	85.782	-0.225938
5.73667	85.799	-0.226054
5.73833	85.815	-0.226310
5.74000	85.832	-0.226581
5.74167	85.849	-0.226866
5.74333	85.865	-0.227089
5.74500	85.882	-0.227268
5.74667	85.898	-0.227407
5.74833	85.915	-0.227529
5.75000	85.932	-0.227585
5.75167	85.948	-0.227628
5.75333	85.965	-0.227656
5.75500	85.982	-0.227694
5.75667	85.999	-0.227784
5.75833	86.014	-0.227907
5.76000	86.031	-0.228072
5.76167	86.049	-0.228262
5.76333	86.065	-0.228439
5.76500	86.081	-0.228665
5.76667	86.097	-0.228914
5.76833	86.114	-0.229146
5.77000	86.130	-0.229348
5.77167	86.147	-0.229502
5.77333	86.164	-0.229676
5.77500	86.180	-0.229895
5.77667	86.197	-0.230074
5.77833	86.214	-0.230249
5.78000	86.230	-0.230482
5.78167	86.247	-0.230750
5.78333	86.265	-0.231038
5.78500	86.281	-0.231305
5.78667	86.297	-0.231508
5.78833	86.315	-0.231694
5.79000	86.330	-0.231919
5.79167	86.346	-0.232056
5.79333	86.363	-0.232222
5.79500	86.380	-0.232412
5.79667	86.397	-0.232676
5.79833	86.413	-0.233022
5.80000	86.429	-0.233501
5.80167	86.445	-0.233907
5.80333	86.463	-0.234346
5.80500	86.479	-0.234698
5.80667	86.496	-0.235089
5.80833	86.512	-0.235512
5.81000	86.529	-0.235762
5.81167	86.547	-0.235961
5.81333	86.563	-0.236122
5.81500	86.579	-0.236242
5.81667	86.596	-0.236299
5.81833	86.613	-0.236376
5.82000	86.630	-0.236441
5.82167	86.646	-0.236530
5.82333	86.663	-0.236653
5.82500	86.680	-0.236891
5.82667	86.696	-0.237217
5.82833	86.712	-0.237466
5.83000	86.730	-0.237616
5.83167	86.744	-0.237723
5.83333	86.761	-0.237810
5.83500	86.778	-0.237888
5.83667	86.794	-0.238036
5.83833	86.811	-0.238185
5.84000	86.827	-0.238388
5.84167	86.844	-0.238712
5.84333	86.862	-0.239121
5.84500	86.878	-0.239660
5.84667	86.895	-0.240284
5.84833	86.911	-0.240785
5.85000	86.927	-0.241079
5.85167	86.944	-0.241233
5.85333	86.960	-0.241394
5.85500	86.977	-0.241609
5.85667	86.994	-0.241802
5.85833	87.010	-0.241947
5.86000	87.026	-0.242061
5.86167	87.042	-0.242244
5.86333	87.059	-0.242547
5.86500	87.076	-0.242985
5.86667	87.094	-0.243472
5.86833	87.109	-0.244016
5.87000	87.126	-0.244421
5.87167	87.143	-0.244847
5.87333	87.160	-0.245146
5.87500	87.176	-0.245509
5.87667	87.193	-0.245765
5.87833	87.209	-0.245920
5.88000	87.226	-0.246114
5.88167	87.242	-0.246294
5.88333	87.259	-0.246483
5.88500	87.276	-0.246623
5.88667	87.292	-0.246802
5.88833	87.308	-0.247164
5.89000	87.325	-0.247603
5.89167	87.342	-0.248108
5.89333	87.358	-0.248835
5.89500	87.375	-0.249554
5.89667	87.392	-0.250123
5.89833	87.409	-0.250723
5.90000	87.424	-0.251281
5.90167	87.440	-0.251609
5.90333	87.457	-0.251717
5.90500	87.474	-0.251919
5.90667	87.491	-0.252269
5.90833	87.507	-0.252479
5.91000	87.523	-0.252789
5.91167	87.541	-0.253253
5.91333	87.558	-0.253643
5.91500	87.574	-0.253993
5.91667	87.589	-0.254212
5.91833	87.606	-0.254422
5.92000	87.624	-0.254554
5.92167	87.640	-0.254681
5.92333	87.656	-0.254807
5.92500	87.672	-0.254913
5.92667	87.689	-0.254985
5.92833	87.705	-0.255134
5.93000	87.721	-0.255343
5.93167	87.738	-0.255548
5.93333	87.755	-0.255694
5.93500	87.771	-0.255794
5.93667	87.788	-0.255936
5.93833	87.805	-0.256101
5.94000	87.822	-0.256232
5.94167	87.839	-0.256467
5.94333	87.854	-0.256743
5.94500	87.871	-0.256979
5.94667	87.887	-0.257360
5.94833	87.904	-0.257796
5.95000	87.921	-0.258277
5.95167	87.938	-0.258734
5.95333	87.954	-0.259008
5.95500	87.970	-0.259369
5.95667	87.986	-0.259631
5.95833	88.003	-0.259901
5.96000	88.020	-0.260255
5.96167	88.036	-0.260531
5.96333	88.052	-0.260774
5.96500	88.069	-0.260947
5.96667	88.086	-0.261055
5.96833	88.103	-0.261134
5.97000	88.119	-0.261155
5.97167	88.135	-0.261176
5.97333	88.151	-0.261181
5.97500	88.167	-0.261210
5.97667	88.185	-0.261238
5.97833	88.201	-0.261360
5.98000	88.218	-0.261497
5.98167	88.235	-0.261649
5.98333	88.251	-0.261778
5.98500	88.268	-0.261908
5.98667	88.284	-0.261987
5.98833	88.300	-0.262041
5.99000	88.317	-0.262073
5.99167	88.334	-0.262077
5.99333	88.350	-0.262084
5.99500	88.367	-0.262080
5.99667	88.383	-0.262099
5.99833	88.400	-0.262129
6.00000	88.416	-0.262156
6.00167	88.433	-0.262196
6.00333	88.449	-0.262252
6.00500	88.466	-0.262278
6.00667	88.483	-0.262286
6.00833	88.499	-0.262263
6.01000	88.516	-0.262215
6.01167	88.533	-0.262149
6.01333	88.549	-0.262088
6.01500	88.565	-0.262036
6.01667	88.582	-0.261987
6.01833	88.598	-0.261934
6.02000	88.615	-0.261863
6.02167	88.631	-0.261806
6.02333	88.648	-0.261765
6.02500	88.664	-0.261722
6.02667	88.681	-0.261670
6.02833	88.698	-0.261613
6.03000	88.716	-0.261513
6.03167	88.732	-0.261372
6.03333	88.750	-0.261220
6.03500	88.766	-0.261022
6.03667	88.782	-0.260747
6.03833	88.799	-0.260414
6.04000	88.815	-0.260067
6.04167	88.833	-0.259769
6.04333	88.849	-0.259473
6.04500	88.866	-0.259225
6.04667	88.883	-0.259008
6.04833	88.899	-0.258796
6.05000	88.917	-0.258550
6.05167	88.933	-0.258269
6.05333	88.950	-0.257996
6.05500	88.965	-0.257731
6.05667	88.983	-0.257539
6.05833	88.999	-0.257417
6.06000	89.016	-0.257285
6.06167	89.033	-0.257154
6.06333	89.049	-0.257069
6.06500	89.066	-0.256926
6.06667	89.082	-0.256728
6.06833	89.100	-0.256526
6.07000	89.116	-0.256280
6.07167	89.133	-0.256049
6.07333	89.151	-0.255832
6.07500	89.168	-0.255667
6.07667	89.184	-0.255569
6.07833	89.201	-0.255510
6.08000	89.218	-0.255476
6.08167	89.233	-0.255464
6.08333	89.252	-0.255449
6.08500	89.267	-0.255431
6.08667	89.284	-0.255423
6.08833	89.301	-0.255422
6.09000	89.317	-0.255424
6.09167	89.334	-0.255429
6.09333	89.351	-0.255436
6.09500	89.367	-0.255445
6.09667	89.384	-0.255461
6.09833	89.400	-0.255483
6.10000	89.418	-0.255525
6.10167	89.434	-0.255582
6.10333	89.451	-0.255680
6.10500	89.468	-0.255769
6.10667	89.484	-0.255890
6.10833	89.501	-0.255985
6.11000	89.518	-0.256132
6.11167	89.534	-0.256294
6.11333	89.551	-0.256443
6.11500	89.568	-0.256613
6.11667	89.584	-0.256763
6.11833	89.601	-0.256935
6.12000	89.617	-0.257162
6.12167	89.634	-0.257396
6.12333	89.651	-0.257713
6.12500	89.667	-0.257995
6.12667	89.683	-0.258319
6.12833	89.700	-0.258549
6.13000	89.717	-0.258750
6.13167	89.734	-0.258943
6.13333	89.751	-0.259164
6.13500	89.768	-0.259375
6.13667	89.784	-0.259613
6.13833	89.801	-0.260003
6.14000	89.817	-0.260525
6.14167	89.834	-0.261239
6.14333	89.850	-0.261839
6.14500	89.867	-0.262357
6.14667	89.884	-0.262785
6.14833	89.900	-0.263235
6.15000	89.917	-0.263661
6.15167	89.932	-0.264132
6.15333	89.950	-0.264516
6.15500	89.967	-0.264859
6.15667	89.982	-0.265309
6.15833	89.999	-0.265688
6.16000	90.017	-0.266075
6.16167	90.032	-0.266325
6.16333	90.050	-0.266479
6.16500	90.065	-0.266589
6.16667	90.082	-0.266668
6.16833	90.099	-0.266732
6.17000	90.116	-0.266861
6.17167	90.132	-0.267103
6.17333	90.148	-0.267369
6.17500	90.165	-0.267543
6.17667	90.182	-0.267696
6.17833	90.199	-0.267906
6.18000	90.215	-0.268099
6.18167	90.232	-0.268321
6.18333	90.248	-0.268560
6.18500	90.265	-0.268764
6.18667	90.281	-0.268923
6.18833	90.297	-0.269142
6.19000	90.315	-0.269392
6.19167	90.331	-0.269617
6.19333	90.348	-0.269692
6.19500	90.364	-0.269729
6.19667	90.381	-0.269757
6.19833	90.397	-0.269801
6.20000	90.414	-0.269830
6.20167	90.430	-0.269865
6.20333	90.446	-0.269898
6.20500	90.464	-0.269917
6.20667	90.480	-0.269923
6.20833	90.497	-0.269922
6.21000	90.514	-0.269915
6.21167	90.530	-0.269858
6.21333	90.547	-0.269806
6.21500	90.564	-0.269772
6.21667	90.581	-0.269739
6.21833	90.598	-0.269697
6.22000	90.613	-0.269659
6.22167	90.630	-0.269630
6.22333	90.647	-0.269606
6.22500	90.662	-0.269574
6.22667	90.680	-0.269535
6.22833	90.697	-0.269487
6.23000	90.714	-0.269438
6.23167	90.729	-0.269381
6.23333	90.747	-0.269324
6.23500	90.762	-0.269278
6.23667	90.780	-0.269214
6.23833	90.796	-0.269136
6.24000	90.813	-0.269043
6.24167	90.829	-0.268900
6.24333	90.846	-0.268616
6.24500	90.862	-0.268210
6.24667	90.880	-0.267690
6.24833	90.897	-0.266943
6.25000	90.913	-0.265985
6.25167	90.929	-0.265150
6.25333	90.947	-0.264569
6.25500	90.963	-0.264037
6.25667	90.981	-0.263552
6.25833	90.997	-0.263069
6.26000	91.014	-0.262549
6.26167	91.031	-0.262026
6.26333	91.048	-0.261379
6.26500	91.065	-0.260640
6.26667	91.081	-0.260074
6.26833	91.098	-0.259473
6.27000	91.114	-0.258966
6.27167	91.131	-0.258621
6.27333	91.148	-0.258358
6.27500	91.165	-0.258119
6.27667	91.182	-0.257860
6.27833	91.198	-0.257583
6.28000	91.214	-0.257226
6.28167	91.231	-0.256598
6.28333	91.248	-0.256070
6.28500	91.265	-0.255610
6.28667	91.283	-0.255233
6.28833	91.299	-0.254866
6.29000	91.316	-0.254601
6.29167	91.333	-0.254507
6.29333	91.350	-0.254375
6.29500	91.367	-0.254242
6.29667	91.384	-0.254061
6.29833	91.400	-0.253676
6.30000	91.418	-0.253125
6.30167	91.434	-0.252578
6.30333	91.450	-0.252085
6.30500	91.467	-0.251851
6.30667	91.484	-0.251500
6.30833	91.502	-0.251228
6.31000	91.519	-0.250998
6.31167	91.534	-0.250656
6.31333	91.552	-0.250342
6.31500	91.568	-0.250057
6.31667	91.586	-0.249723
6.31833	91.602	-0.249140
6.32000	91.619	-0.248609
6.32167	91.636	-0.248243
6.32333	91.654	-0.247972
6.32500	91.670	-0.247820
6.32667	91.687	-0.247773
6.32833	91.704	-0.247733
6.33000	91.720	-0.247649
6.33167	91.737	-0.247557
6.33333	91.753	-0.247376
6.33500	91.770	-0.247241
6.33667	91.787	-0.247041
6.33833	91.803	-0.246793
6.34000	91.821	-0.246427
6.34167	91.838	-0.245982
6.34333	91.856	-0.245630
6.34500	91.872	-0.245213
6.34667	91.889	-0.244804
6.34833	91.905	-0.244415
6.35000	91.923	-0.244072
6.35167	91.939	-0.243789
6.35333	91.956	-0.243653
6.35500	91.972	-0.243621
6.35667	91.989	-0.243628
6.35833	92.006	-0.243592
6.36000	92.024	-0.243527
6.36167	92.039	-0.243499
6.36333	92.057	-0.243367
6.36500	92.074	-0.243166
6.36667	92.091	-0.242935
6.36833	92.108	-0.242574
6.37000	92.124	-0.242066
6.37167	92.142	-0.241540
6.37333	92.157	-0.241110
6.37500	92.175	-0.240709
6.37667	92.192	-0.240394
6.37833	92.208	-0.240045
6.38000	92.225	-0.239727
6.38167	92.242	-0.239483
6.38333	92.259	-0.239337
6.38500	92.275	-0.239175
6.38667	92.292	-0.238947
6.38833	92.311	-0.238700
6.39000	92.326	-0.238474
6.39167	92.342	-0.238208
6.39333	92.360	-0.237938
6.39500	92.377	-0.237646
6.39667	92.393	-0.237388
6.39833	92.410	-0.237074
6.40000	92.427	-0.236810
6.40167	92.445	-0.236623
6.40333	92.461	-0.236472
6.40500	92.478	-0.236374
6.40667	92.495	-0.236251
6.40833	92.511	-0.236185
6.41000	92.528	-0.236081
6.41167	92.545	-0.235929
6.41333	92.563	-0.235752
6.41500	92.579	-0.235555
6.41667	92.596	-0.235296
6.41833	92.613	-0.235026
6.42000	92.629	-0.234764
6.42167	92.647	-0.234471
6.42333	92.663	-0.234152
6.42500	92.679	-0.233817
6.42667	92.697	-0.233564
6.42833	92.713	-0.233282
6.43000	92.730	-0.232993
6.43167	92.747	-0.232658
6.43333	92.764	-0.232424
6.43500	92.781	-0.232256
6.43667	92.797	-0.232139
6.43833	92.814	-0.231962
6.44000	92.832	-0.231674
6.44167	92.848	-0.231452
6.44333	92.864	-0.231249
6.44500	92.882	-0.231110
6.44667	92.898	-0.230938
6.44833	92.916	-0.230781
6.45000	92.932	-0.230583
6.45167	92.949	-0.230446
6.45333	92.965	-0.230261
6.45500	92.982	-0.230091
6.45667	93.000	-0.229878
6.45833	93.016	-0.229607
6.46000	93.034	-0.229343
6.46167	93.050	-0.228982
6.46333	93.066	-0.228595
6.46500	93.083	-0.228129
6.46667	93.100	-0.227789
6.46833	93.117	-0.227398
6.47000	93.133	-0.227035
6.47167	93.151	-0.226637
6.47333	93.167	-0.226273
6.47500	93.185	-0.225894
6.47667	93.201	-0.225484
6.47833	93.218	-0.225143
6.48000	93.236	-0.224845
6.48167	93.252	-0.224471
6.48333	93.269	-0.224120
6.48500	93.285	-0.223727
6.48667	93.303	-0.223424
6.48833	93.320	-0.223129
6.49000	93.336	-0.222834
6.49167	93.353	-0.222637
6.49333	93.369	-0.222337
6.49500	93.386	-0.222018
6.49667	93.403	-0.221773
6.49833	93.419	-0.221590
6.50000	93.437	-0.221413
6.50167	93.454	-0.221206
6.50333	93.471	-0.220966
6.50500	93.487	-0.220811
6.50667	93.505	-0.220717
6.50833	93.521	-0.220659
6.51000	93.538	-0.220610
6.51167	93.555	-0.220461
6.51333	93.572	-0.220322
6.51500	93.589	-0.220189
6.51667	93.606	-0.220038
6.51833	93.623	-0.219818
6.52000	93.640	-0.219390
6.52167	93.657	-0.218884
6.52333	93.673	-0.218154
6.52500	93.691	-0.217499
6.52667	93.708	-0.217271
6.52833	93.724	-0.217242
6.53000	93.740	-0.217255
6.53167	93.756	-0.217328
6.53333	93.773	-0.217412
6.53500	93.791	-0.217904
6.53667	93.806	-0.218254
6.53833	93.824	-0.218477
6.54000	93.841	-0.218484
6.54167	93.858	-0.218452
6.54333	93.874	-0.218371
6.54500	93.891	-0.218281
6.54667	93.909	-0.218226
6.54833	93.925	-0.218201
6.55000	93.942	-0.218191
6.55167	93.959	-0.218189
6.55333	93.976	-0.218234
6.55500	93.991	-0.218235
6.55667	94.008	-0.218227
6.55833	94.025	-0.218206
6.56000	94.042	-0.218186
6.56167	94.059	-0.218161
6.56333	94.076	-0.218115
6.56500	94.093	-0.218060
6.56667	94.110	-0.218010
6.56833	94.126	-0.217975
6.57000	94.142	-0.217956
6.57167	94.160	-0.217952
6.57333	94.176	-0.217953
6.57500	94.194	-0.217962
6.57667	94.209	-0.217985
6.57833	94.226	-0.218006
6.58000	94.243	-0.218024
6.58167	94.260	-0.218032
6.58333	94.276	-0.218034
6.58500	94.293	-0.218034
6.58667	94.310	-0.218033
6.58833	94.326	-0.218029
6.59000	94.344	-0.218023
6.59167	94.360	-0.218023
6.59333	94.378	-0.218030
6.59500	94.394	-0.218041
6.59667	94.410	-0.218048
6.59833	94.428	-0.218055
6.60000	94.444	-0.218054
6.60167	94.461	-0.218056
6.60333	94.478	-0.218059
6.60500	94.495	-0.218068
6.60667	94.511	-0.218072
6.60833	94.528	-0.218071
6.61000	94.544	-0.218074
6.61167	94.562	-0.218079
6.61333	94.578	-0.218085
6.61500	94.595	-0.218090
6.61667	94.612	-0.218096
6.61833	94.628	-0.218101
6.62000	94.645	-0.218105
6.62167	94.660	-0.218107
6.62333	94.677	-0.218108
6.62500	94.695	-0.218109
6.62667	94.711	-0.218111
6.62833	94.727	-0.218112
6.63000	94.744	-0.218114
6.63167	94.761	-0.218118
6.63333	94.778	-0.218123
6.63500	94.795	-0.218130
6.63667	94.811	-0.218133
6.63833	94.828	-0.218137
6.64000	94.844	-0.218141
6.64167	94.861	-0.218143
6.64333	94.878	-0.218145
6.64500	94.895	-0.218149
6.64667	94.911	-0.218152
6.64833	94.928	-0.218156
6.65000	94.945	-0.218160
6.65167	94.960	-0.218162
6.65333	94.977	-0.218162
6.65500	94.994	-0.218158
6.65667	95.012	-0.218153
6.65833	95.029	-0.218150
6.66000	95.045	-0.218145
6.66167	95.062	-0.218124
6.66333	95.079	-0.218095
6.66500	95.096	-0.218053
6.66667	95.112	-0.218002
6.66833	95.129	-0.217960
6.67000	95.146	-0.217930
6.67167	95.163	-0.217880
6.67333	95.179	-0.217823
6.67500	95.195	-0.217769
6.67667	95.212	-0.217741
6.67833	95.228	-0.217690
6.68000	95.245	-0.217608
6.68167	95.263	-0.217520
6.68333	95.280	-0.217467
6.68500	95.296	-0.217391
6.68667	95.313	-0.217282
6.68833	95.329	-0.217145
6.69000	95.347	-0.216962
6.69167	95.364	-0.216780
6.69333	95.380	-0.216539
6.69500	95.397	-0.216272
6.69667	95.414	-0.215965
6.69833	95.430	-0.215595
6.70000	95.446	-0.215308
6.70167	95.464	-0.215173
6.70333	95.480	-0.215080
6.70500	95.496	-0.214968
6.70667	95.514	-0.214834
6.70833	95.530	-0.214683
6.71000	95.547	-0.214526
6.71167	95.564	-0.214311
6.71333	95.581	-0.213977
6.71500	95.597	-0.213576
6.71667	95.614	-0.213214
6.71833	95.631	-0.212845
6.72000	95.648	-0.212523
6.72167	95.665	-0.212200
6.72333	95.681	-0.211851
6.72500	95.698	-0.211524
6.72667	95.715	-0.211064
6.72833	95.732	-0.210444
6.73000	95.748	-0.209880
6.73167	95.765	-0.209334
6.73333	95.782	-0.208879
6.73500	95.799	-0.208524
6.73667	95.816	-0.208248
6.73833	95.832	-0.208058
6.74000	95.849	-0.207904
6.74167	95.865	-0.207731
6.74333	95.882	-0.207567
6.74500	95.899	-0.207417
6.74667	95.915	-0.207243
6.74833	95.933	-0.206958
6.75000	95.950	-0.206525
6.75167	95.967	-0.206046
6.75333	95.983	-0.205632
6.75500	96.000	-0.205329
6.75667	96.017	-0.205070
6.75833	96.033	-0.204901
6.76000	96.051	-0.204651
6.76167	96.067	-0.204344
6.76333	96.084	-0.204076
6.76500	96.100	-0.203931
6.76667	96.117	-0.203755
6.76833	96.134	-0.203435
6.77000	96.151	-0.203093
6.77167	96.167	-0.202775
6.77333	96.185	-0.202327
6.77500	96.202	-0.201990
6.77667	96.219	-0.201741
6.77833	96.235	-0.201521
6.78000	96.253	-0.201296
6.78167	96.270	-0.201064
6.78333	96.286	-0.200959
6.78500	96.302	-0.200904
6.78667	96.318	-0.200845
6.78833	96.336	-0.200787
6.79000	96.352	-0.200754
6.79167	96.370	-0.200691
6.79333	96.387	-0.200504
6.79500	96.404	-0.200273
6.79667	96.421	-0.200081
6.79833	96.437	-0.199779
6.80000	96.454	-0.199396
6.80167	96.471	-0.199137
6.80333	96.487	-0.198880
6.80500	96.505	-0.198665
6.80667	96.521	-0.198533
6.80833	96.537	-0.198439
6.81000	96.556	-0.198300
6.81167	96.571	-0.198181
6.81333	96.588	-0.198119
6.81500	96.604	-0.198087
6.81667	96.622	-0.198011
6.81833	96.639	-0.197873
6.82000	96.656	-0.197655
6.82167	96.673	-0.197366
6.82333	96.689	-0.197120
6.82500	96.707	-0.196821
6.82667	96.723	-0.196544
6.82833	96.739	-0.196257
6.83000	96.755	-0.196039
6.83167	96.773	-0.195855
6.83333	96.790	-0.195721
6.83500	96.806	-0.195665
6.83667	96.823	-0.195628
6.83833	96.840	-0.195572
6.84000	96.857	-0.195510
6.84167	96.873	-0.195467
6.84333	96.891	-0.195394
6.84500	96.908	-0.195293
6.84667	96.925	-0.195169
6.84833	96.941	-0.195044
6.85000	96.959	-0.194898
6.85167	96.975	-0.194751
6.85333	96.992	-0.194617
6.85500	97.009	-0.194480
6.85667	97.025	-0.194400
6.85833	97.042	-0.194337
6.86000	97.058	-0.194272
6.86167	97.075	-0.194177
6.86333	97.092	-0.194097
6.86500	97.109	-0.193986
6.86667	97.126	-0.193833
6.86833	97.143	-0.193658
6.87000	97.160	-0.193451
6.87167	97.176	-0.193243
6.87333	97.194	-0.193031
6.87500	97.211	-0.192943
6.87667	97.227	-0.192902
6.87833	97.244	-0.192839
6.88000	97.261	-0.192772
6.88167	97.278	-0.192716
6.88333	97.294	-0.192648
6.88500	97.310	-0.192593
6.88667	97.327	-0.192532
6.88833	97.343	-0.192395
6.89000	97.361	-0.192177
6.89167	97.378	-0.191880
6.89333	97.395	-0.191622
6.89500	97.411	-0.191403
6.89667	97.426	-0.191174
6.89833	97.444	-0.191032
6.90000	97.462	-0.190963
6.90167	97.479	-0.190928
6.90333	97.495	-0.190926
6.90500	97.512	-0.190954
6.90667	97.528	-0.190968
6.90833	97.545	-0.190963
6.91000	97.561	-0.190948
6.91167	97.579	-0.190910
6.91333	97.595	-0.190858
6.91500	97.612	-0.190772
6.91667	97.629	-0.190674
6.91833	97.645	-0.190578
6.92000	97.662	-0.190473
6.92167	97.678	-0.190419
6.92333	97.695	-0.190381
6.92500	97.712	-0.190336
6.92667	97.730	-0.190298
6.92833	97.745	-0.190260
6.93000	97.763	-0.190234
6.93167	97.780	-0.190218
6.93333	97.796	-0.190208
6.93500	97.812	-0.190193
6.93667	97.829	-0.190181
6.93833	97.846	-0.190153
6.94000	97.863	-0.190107
6.94167	97.879	-0.190018
6.94333	97.896	-0.189858
6.94500	97.913	-0.189672
6.94667	97.930	-0.189523
6.94833	97.948	-0.189422
6.95000	97.963	-0.189352
6.95167	97.981	-0.189286
6.95333	97.997	-0.189223
6.95500	98.014	-0.189150
6.95667	98.031	-0.189033
6.95833	98.048	-0.188948
6.96000	98.065	-0.188878
6.96167	98.081	-0.188818
6.96333	98.098	-0.188770
6.96500	98.115	-0.188751
6.96667	98.131	-0.188742
6.96833	98.148	-0.188693
6.97000	98.165	-0.188676
6.97167	98.181	-0.188668
6.97333	98.198	-0.188646
6.97500	98.215	-0.188638
6.97667	98.232	-0.188619
6.97833	98.248	-0.188584
6.98000	98.266	-0.188512
6.98167	98.282	-0.188439
6.98333	98.298	-0.188373
6.98500	98.315	-0.188302
6.98667	98.332	-0.188225
6.98833	98.349	-0.188113
6.99000	98.366	-0.188011
6.99167	98.383	-0.187929
6.99333	98.399	-0.187875
6.99500	98.416	-0.187831
6.99667	98.432	-0.187805
6.99833	98.449	-0.187772
7.00000	98.466	-0.187751
7.00167	98.483	-0.187741
7.00333	98.499	-0.187695
7.00500	98.516	-0.187658
7.00667	98.533	-0.187619
7.00833	98.550	-0.187609
7.01000	98.566	-0.187598
7.01167	98.584	-0.187569
7.01333	98.599	-0.187488
7.01500	98.617	-0.187354
7.01667	98.633	-0.187147
7.01833	98.649	-0.187024
7.02000	98.666	-0.186959
7.02167	98.683	-0.186921
7.02333	98.700	-0.186901
7.02500	98.717	-0.186890
7.02667	98.734	-0.186854
7.02833	98.751	-0.186821
7.03000	98.767	-0.186811
7.03167	98.784	-0.186801
7.03333	98.800	-0.186789
7.03500	98.817	-0.186764
7.03667	98.833	-0.186734
7.03833	98.850	-0.186716
7.04000	98.867	-0.186703
7.04167	98.884	-0.186691
7.04333	98.899	-0.186672
7.04500	98.917	-0.186659
7.04667	98.934	-0.186631
7.04833	98.951	-0.186610
7.05000	98.967	-0.186582
7.05167	98.984	-0.186558
7.05333	99.001	-0.186540
7.05500	99.017	-0.186509
7.05667	99.034	-0.186490
7.05833	99.051	-0.186471
7.06000	99.067	-0.186450
7.06167	99.085	-0.186402
7.06333	99.101	-0.186341
7.06500	99.117	-0.186250
7.06667	99.134	-0.186199
7.06833	99.151	-0.186150
7.07000	99.167	-0.186101
7.07167	99.185	-0.186079
7.07333	99.201	-0.186048
7.07500	99.218	-0.186032
7.07667	99.234	-0.186017
7.07833	99.252	-0.185977
7.08000	99.268	-0.185941
7.08167	99.285	-0.185927
7.08333	99.302	-0.185913
7.08500	99.319	-0.185899
7.08667	99.334	-0.185885
7.08833	99.351	-0.185870
7.09000	99.368	-0.185854
7.09167	99.384	-0.185840
7.09333	99.402	-0.185825
7.09500	99.418	-0.185809
7.09667	99.435	-0.185793
7.09833	99.452	-0.185777
7.10000	99.468	-0.185762
7.10167	99.485	-0.185747
7.10333	99.502	-0.185732
7.10500	99.519	-0.185716
7.10667	99.534	-0.185700
7.10833	99.552	-0.185682
7.11000	99.569	-0.185666
7.11167	99.585	-0.185649
7.11333	99.602	-0.185628
7.11500	99.619	-0.185610
7.11667	99.635	-0.185590
7.11833	99.652	-0.185572
7.12000	99.670	-0.185554
7.12167	99.686	-0.185538
7.12333	99.701	-0.185520
7.12500	99.718	-0.185505
7.12667	99.736	-0.185491
7.12833	99.752	-0.185476
7.13000	99.770	-0.185463
7.13167	99.786	-0.185448
7.13333	99.802	-0.185431
7.13500	99.819	-0.185413
7.13667	99.836	-0.185395
7.13833	99.852	-0.185376
7.14000	99.869	-0.185355
7.14167	99.886	-0.185327
7.14333	99.903	-0.185302
7.14500	99.918	-0.185277
7.14667	99.936	-0.185258
7.14833	99.953	-0.185238
7.15000	99.971	-0.185219
7.15167	99.986	-0.185201
7.15333	100.003	-0.185185
7.15500	100.019	-0.185170
7.15667	100.036	-0.185157
7.15833	100.052	-0.185144
7.16000	100.069	-0.185132
7.16167	100.086	-0.185119
7.16333	100.103	-0.185105
7.16500	100.119	-0.185088
7.16667	100.136	-0.185070
7.16833	100.153	-0.185047
7.17000	100.170	-0.185002
7.17167	100.187	-0.184977
7.17333	100.203	-0.184956
7.17500	100.221	-0.184937
7.17667	100.237	-0.184919
7.17833	100.253	-0.184905
7.18000	100.270	-0.184893
7.18167	100.287	-0.184880
7.18333	100.304	-0.184869
7.18500	100.320	-0.184856
7.18667	100.337	-0.184843
7.18833	100.353	-0.184830
7.19000	100.370	-0.184815
7.19167	100.387	-0.184798
7.19333	100.403	-0.184781
7.19500	100.420	-0.184761
7.19667	100.437	-0.184741
7.19833	100.454	-0.184723
7.20000	100.470	-0.184705
7.20167	100.488	-0.184687
7.20333	100.504	-0.184669
7.20500	100.521	-0.184650
7.20667	100.538	-0.184633
7.20833	100.553	-0.184615
7.21000	100.570	-0.184597
7.21167	100.587	-0.184578
7.21333	100.604	-0.184561
7.21500	100.621	-0.184543
7.21667	100.637	-0.184525
7.21833	100.654	-0.184510
7.22000	100.671	-0.184496
7.22167	100.687	-0.184481
7.22333	100.704	-0.184466
7.22500	100.721	-0.184454
7.22667	100.738	-0.184444
7.22833	100.754	-0.184431
7.23000	100.771	-0.184419
7.23167	100.787	-0.184409
7.23333	100.804	-0.184396
7.23500	100.821	-0.184382
7.23667	100.838	-0.184364
7.23833	100.855	-0.184345
7.24000	100.872	-0.184325
7.24167	100.888	-0.184307
7.24333	100.905	-0.184292
7.24500	100.921	-0.184278
7.24667	100.938	-0.184264
7.24833	100.955	-0.184252
7.25000	100.972	-0.184239
7.25167	100.988	-0.184228
7.25333	101.004	-0.184217
7.25500	101.021	-0.184205
7.25667	101.037	-0.184191
7.25833	101.055	-0.184175
7.26000	101.072	-0.184157
7.26167	101.088	-0.184139
7.26333	101.104	-0.184118
7.26500	101.122	-0.184101
7.26667	101.138	-0.184088
7.26833	101.155	-0.184074
7.27000	101.172	-0.184061
7.27167	101.189	-0.184048
7.27333	101.204	-0.184037
7.27500	101.222	-0.184026
7.27667	101.238	-0.184016
7.27833	101.255	-0.184005
7.28000	101.272	-0.183990
7.28167	101.288	-0.183974
7.28333	101.305	-0.183953
7.28500	101.322	-0.183935
7.28667	101.339	-0.183919
7.28833	101.356	-0.183903
7.29000	101.372	-0.183887
7.29167	101.388	-0.183869
7.29333	101.404	-0.183851
7.29500	101.421	-0.183835
7.29667	101.437	-0.183823
7.29833	101.454	-0.183810
7.30000	101.472	-0.183797
7.30167	101.489	-0.183786
7.30333	101.505	-0.183773
7.30500	101.522	-0.183762
7.30667	101.540	-0.183752
7.30833	101.555	-0.183742
7.31000	101.572	-0.183732
7.31167	101.588	-0.183722
7.31333	101.605	-0.183712
7.31500	101.621	-0.183701
7.31667	101.636	-0.183687
7.31833	101.654	-0.183675
7.32000	101.672	-0.183662
7.32167	101.688	-0.183648
7.32333	101.705	-0.183635
7.32500	101.722	-0.183620
7.32667	101.738	-0.183606
7.32833	101.755	-0.183593
7.33000	101.772	-0.183582
7.33167	101.788	-0.183571
7.33333	101.805	-0.183562
7.33500	101.822	-0.183554
7.33667	101.837	-0.183548
7.33833	101.855	-0.183541
7.34000	101.871	-0.183534
7.34167	101.888	-0.183525
7.34333	101.904	-0.183513
7.34500	101.921	-0.183501
7.34667	101.938	-0.183488
7.34833	101.955	-0.183475
7.35000	101.971	-0.183462
7.35167	101.988	-0.183449
7.35333	102.005	-0.183436
7.35500	102.021	-0.183424
7.35667	102.037	-0.183412
7.35833	102.055	-0.183402
7.36000	102.071	-0.183391
7.36167	102.088	-0.183380
7.36333	102.104	-0.183369
7.36500	102.121	-0.183360
7.36667	102.137	-0.183351
7.36833	102.155	-0.183341
7.37000	102.172	-0.183331
7.37167	102.187	-0.183319
7.37333	102.204	-0.183306
7.37500	102.221	-0.183295
7.37667	102.238	-0.183283
7.37833	102.255	-0.183271
7.38000	102.272	-0.183261
7.38167	102.289	-0.183254
7.38333	102.306	-0.183249
7.38500	102.323	-0.183243
7.38667	102.340	-0.183234
7.38833	102.356	-0.183224
7.39000	102.372	-0.183214
7.39167	102.389	-0.183203
7.39333	102.405	-0.183192
7.39500	102.421	-0.183178
7.39667	102.439	-0.183157
7.39833	102.455	-0.183142
7.40000	102.472	-0.183129
7.40167	102.488	-0.183120
7.40333	102.506	-0.183112
7.40500	102.522	-0.183104
7.40667	102.539	-0.183095
7.40833	102.555	-0.183089
7.41000	102.573	-0.183084
7.41167	102.589	-0.183080
7.41333	102.607	-0.183074
7.41500	102.623	-0.183067
7.41667	102.639	-0.183060
7.41833	102.656	-0.183055
7.42000	102.672	-0.183049
7.42167	102.689	-0.183044
7.42333	102.706	-0.183038
7.42500	102.723	-0.183032
7.42667	102.739	-0.183028
7.42833	102.756	-0.183024
7.43000	102.773	-0.183017
7.43167	102.790	-0.183011
7.43333	102.806	-0.183005
7.43500	102.822	-0.182997
7.43667	102.840	-0.182990
7.43833	102.856	-0.182982
7.44000	102.873	-0.182974
7.44167	102.889	-0.182965
7.44333	102.906	-0.182960
7.44500	102.922	-0.182957
7.44667	102.939	-0.182954
7.44833	102.956	-0.182952
7.45000	102.973	-0.182950
7.45167	102.989	-0.182946
7.45333	103.006	-0.182940
7.45500	103.023	-0.182933
7.45667	103.040	-0.182925
7.45833	103.057	-0.182914
7.46000	103.073	-0.182903
7.46167	103.089	-0.182894
7.46333	103.106	-0.182885
7.46500	103.123	-0.182880
7.46667	103.140	-0.182877
7.46833	103.156	-0.182875
7.47000	103.173	-0.182873
7.47167	103.190	-0.182872
7.47333	103.207	-0.182872
7.47500	103.223	-0.182872
7.47667	103.240	-0.182871
7.47833	103.256	-0.182869
7.48000	103.273	-0.182867
7.48167	103.290	-0.182863
7.48333	103.307	-0.182859
7.48500	103.323	-0.182854
7.48667	103.340	-0.182848
7.48833	103.357	-0.182840
7.49000	103.373	-0.182833
7.49167	103.390	-0.182826
7.49333	103.406	-0.182820
7.49500	103.423	-0.182813
7.49667	103.440	-0.182808
7.49833	103.457	-0.182806
7.50000	103.473	-0.182804
7.50167	103.490	-0.182802
7.50333	103.506	-0.182803
7.50500	103.523	-0.182806
7.50667	103.540	-0.182813
7.50833	103.556	-0.182816
7.51000	103.573	-0.182820
7.51167	103.591	-0.182821
7.51333	103.606	-0.182820
7.51500	103.624	-0.182816
7.51667	103.640	-0.182809
7.51833	103.656	-0.182800
7.52000	103.673	-0.182791
7.52167	103.690	-0.182784
7.52333	103.706	-0.182779
7.52500	103.723	-0.182773
7.52667	103.739	-0.182765
7.52833	103.756	-0.182758
7.53000	103.772	-0.182755
7.53167	103.789	-0.182752
7.53333	103.806	-0.182747
7.53500	103.822	-0.182744
7.53667	103.839	-0.182743
7.53833	103.856	-0.182742
7.54000	103.872	-0.182743
7.54167	103.890	-0.182745
7.54333	103.906	-0.182748
7.54500	103.924	-0.182751
7.54667	103.940	-0.182754
7.54833	103.956	-0.182757
7.55000	103.973	-0.182759
7.55167	103.990	-0.182758
7.55333	104.008	-0.182757
7.55500	104.024	-0.182754
7.55667	104.039	-0.182753
7.55833	104.056	-0.182750
7.56000	104.073	-0.182748
7.56167	104.090	-0.182745
7.56333	104.106	-0.182741
7.56500	104.123	-0.182739
7.56667	104.139	-0.182741
7.56833	104.156	-0.182740
7.57000	104.174	-0.182739
7.57167	104.189	-0.182739
7.57333	104.207	-0.182737
7.57500	104.223	-0.182739
7.57667	104.239	-0.182743
7.57833	104.257	-0.182746
7.58000	104.274	-0.182747
7.58167	104.289	-0.182749
7.58333	104.307	-0.182749
7.58500	104.323	-0.182751
7.58667	104.340	-0.182751
7.58833	104.357	-0.182751
7.59000	104.374	-0.182751
7.59167	104.390	-0.182747
7.59333	104.407	-0.182748
7.59500	104.423	-0.182750
7.59667	104.441	-0.182752
7.59833	104.457	-0.182755
7.60000	104.473	-0.182757
7.60167	104.490	-0.182758
7.60333	104.507	-0.182758
7.60500	104.523	-0.182755
7.60667	104.541	-0.182751
7.60833	104.557	-0.182745
7.61000	104.574	-0.182735
7.61167	104.590	-0.182729
7.61333	104.607	-0.182725
7.61500	104.624	-0.182722
7.61667	104.640	-0.182723
7.61833	104.657	-0.182725
7.62000	104.674	-0.182730
7.62167	104.690	-0.182736
7.62333	104.708	-0.182739
7.62500	104.723	-0.182741
7.62667	104.740	-0.182742
7.62833	104.758	-0.182742
7.63000	104.775	-0.182740
7.63167	104.790	-0.182739
7.63333	104.807	-0.182738
7.63500	104.823	-0.182735
7.63667	104.840	-0.182735
7.63833	104.857	-0.182736
7.64000	104.874	-0.182737
7.64167	104.891	-0.182734
7.64333	104.907	-0.182730
7.64500	104.924	-0.182727
7.64667	104.940	-0.182725
7.64833	104.958	-0.182721
7.65000	104.974	-0.182715
7.65167	104.991	-0.182709
7.65333	105.007	-0.182701
7.65500	105.024	-0.182695
7.65667	105.039	-0.182692
7.65833	105.057	-0.182693
7.66000	105.074	-0.182692
7.66167	105.090	-0.182693
7.66333	105.107	-0.182697
7.66500	105.124	-0.182708
7.66667	105.141	-0.182718
7.66833	105.157	-0.182738
7.67000	105.174	-0.182750
7.67167	105.190	-0.182756
7.67333	105.208	-0.182758
7.67500	105.224	-0.182758
7.67667	105.240	-0.182757
7.67833	105.257	-0.182754
7.68000	105.274	-0.182752
7.68167	105.291	-0.182752
7.68333	105.307	-0.182754
7.68500	105.326	-0.182756
7.68667	105.341	-0.182760
7.68833	105.358	-0.182765
7.69000	105.374	-0.182771
7.69167	105.391	-0.182775
7.69333	105.407	-0.182776
7.69500	105.425	-0.182774
7.69667	105.442	-0.182771
7.69833	105.458	-0.182767
7.70000	105.474	-0.182767
7.70167	105.491	-0.182770
7.70333	105.507	-0.182776
7.70500	105.525	-0.182783
7.70667	105.541	-0.182789
7.70833	105.557	-0.182796
7.71000	105.574	-0.182807
7.71167	105.591	-0.182812
7.71333	105.607	-0.182814
7.71500	105.624	-0.182813
7.71667	105.641	-0.182809
7.71833	105.659	-0.182804
7.72000	105.674	-0.182794
7.72167	105.691	-0.182787
7.72333	105.708	-0.182782
7.72500	105.724	-0.182778
7.72667	105.741	-0.182775
7.72833	105.758	-0.182773
7.73000	105.775	-0.182774
7.73167	105.791	-0.182773
7.73333	105.807	-0.182772
7.73500	105.825	-0.182771
7.73667	105.841	-0.182773
7.73833	105.858	-0.182775
7.74000	105.875	-0.182779
7.74167	105.892	-0.182785
7.74333	105.908	-0.182796
7.74500	105.925	-0.182803
7.74667	105.941	-0.182809
7.74833	105.958	-0.182821
7.75000	105.975	-0.182832
7.75167	105.992	-0.182845
7.75333	106.008	-0.182854
7.75500	106.025	-0.182868
7.75667	106.041	-0.182877
7.75833	106.059	-0.182886
7.76000	106.075	-0.182894
7.76167	106.092	-0.182902
7.76333	106.109	-0.182906
7.76500	106.125	-0.182907
7.76667	106.142	-0.182907
7.76833	106.158	-0.182906
7.77000	106.175	-0.182906
7.77167	106.192	-0.182906
7.77333	106.208	-0.182909
7.77500	106.224	-0.182915
7.77667	106.242	-0.182924
7.77833	106.258	-0.182932
7.78000	106.274	-0.182941
7.78167	106.291	-0.182950
7.78333	106.309	-0.182955
7.78500	106.326	-0.182959
7.78667	106.342	-0.182962
7.78833	106.359	-0.182965
7.79000	106.375	-0.182966
7.79167	106.392	-0.182969
7.79333	106.408	-0.182973
7.79500	106.424	-0.182979
7.79667	106.442	-0.182984
7.79833	106.458	-0.182986
7.80000	106.475	-0.182988
7.80167	106.491	-0.182989
7.80333	106.509	-0.182988
7.80500	106.526	-0.182988
7.80667	106.543	-0.182988
7.80833	106.560	-0.182989
7.81000	106.576	-0.182990
7.81167	106.593	-0.182994
7.81333	106.609	-0.183002
7.81500	106.626	-0.183008
7.81667	106.642	-0.183011
7.81833	106.659	-0.183014
7.82000	106.675	-0.183016
7.82167	106.692	-0.183018
7.82333	106.708	-0.183021
7.82500	106.725	-0.183025
7.82667	106.741	-0.183029
7.82833	106.758	-0.183035
7.83000	106.774	-0.183041
7.83167	106.791	-0.183047
7.83333	106.808	-0.183053
7.83500	106.825	-0.183058
7.83667	106.841	-0.183063
7.83833	106.858	-0.183067
7.84000	106.874	-0.183071
7.84167	106.891	-0.183075
7.84333	106.908	-0.183079
7.84500	106.925	-0.183084
7.84667	106.942	-0.183091
7.84833	106.958	-0.183096
7.85000	106.975	-0.183099
7.85167	106.991	-0.183103
7.85333	107.008	-0.183107
7.85500	107.024	-0.183111
7.85667	107.041	-0.183115
7.85833	107.058	-0.183122
7.86000	107.074	-0.183131
7.86167	107.092	-0.183139
7.86333	107.108	-0.183150
7.86500	107.125	-0.183159
7.86667	107.142	-0.183168
7.86833	107.159	-0.183173
7.87000	107.175	-0.183176
7.87167	107.191	-0.183178
7.87333	107.209	-0.183179
7.87500	107.225	-0.183179
7.87667	107.242	-0.183179
7.87833	107.259	-0.183183
7.88000	107.275	-0.183188
7.88167	107.292	-0.183196
7.88333	107.308	-0.183206
7.88500	107.325	-0.183215
7.88667	107.342	-0.183224
7.88833	107.358	-0.183229
7.89000	107.375	-0.183234
7.89167	107.392	-0.183237
7.89333	107.409	-0.183241
7.89500	107.424	-0.183242
7.89667	107.441	-0.183245
7.89833	107.458	-0.183247
7.90000	107.474	-0.183250
7.90167	107.491	-0.183252
7.90333	107.507	-0.183257
7.90500	107.524	-0.183264
7.90667	107.542	-0.183271
7.90833	107.558	-0.183278
7.91000	107.574	-0.183286
7.91167	107.592	-0.183295
7.91333	107.608	-0.183303
7.91500	107.625	-0.183312
7.91667	107.641	-0.183323
7.91833	107.658	-0.183332
7.92000	107.675	-0.183341
7.92167	107.692	-0.183347
7.92333	107.708	-0.183355
7.92500	107.725	-0.183361
7.92667	107.741	-0.183368
7.92833	107.758	-0.183376
7.93000	107.776	-0.183385
7.93167	107.792	-0.183392
7.93333	107.809	-0.183400
7.93500	107.826	-0.183406
7.93667	107.842	-0.183411
7.93833	107.858	-0.183413
7.94000	107.875	-0.183414
7.94167	107.892	-0.183414
7.94333	107.909	-0.183413
7.94500	107.925	-0.183412
7.94667	107.942	-0.183415
7.94833	107.958	-0.183419
7.95000	107.976	-0.183423
7.95167	107.992	-0.183429
7.95333	108.010	-0.183435
7.95500	108.024	-0.183442
7.95667	108.041	-0.183447
7.95833	108.059	-0.183453
7.96000	108.075	-0.183458
7.96167	108.091	-0.183460
7.96333	108.108	-0.183465
7.96500	108.126	-0.183469
7.96667	108.141	-0.183475
7.96833	108.158	-0.183484
7.97000	108.175	-0.183492
7.97167	108.192	-0.183501
7.97333	108.209	-0.183507
7.97500	108.226	-0.183512
7.97667	108.242	-0.183515
7.97833	108.259	-0.183518
7.98000	108.276	-0.183521
7.98167	108.292	-0.183526
7.98333	108.309	-0.183533
7.98500	108.326	-0.183541
7.98667	108.342	-0.183572
7.98833	108.359	-0.183620
7.99000	108.376	-0.183659
7.99167	108.392	-0.183675
7.99333	108.409	-0.183686
7.99500	108.425	-0.183692
7.99667	108.442	-0.183696
7.99833	108.459	-0.183696
8.00000	108.476	-0.183697
8.00167	108.492	-0.183697
8.00333	108.509	-0.183692
8.00500	108.525	-0.183690
8.00667	108.543	-0.183689
8.00833	108.558	-0.183690
8.01000	108.576	-0.183694
8.01167	108.592	-0.183700
8.01333	108.608	-0.183707
8.01500	108.625	-0.183716
8.01667	108.642	-0.183727
8.01833	108.658	-0.183747
8.02000	108.675	-0.183774
8.02167	108.692	-0.183790
8.02333	108.709	-0.183801
8.02500	108.726	-0.183808
8.02667	108.743	-0.183814
8.02833	108.759	-0.183820
8.03000	108.775	-0.183826
8.03167	108.792	-0.183828
8.03333	108.810	-0.183832
8.03500	108.825	-0.183835
8.03667	108.842	-0.183839
8.03833	108.859	-0.183844
8.04000	108.875	-0.183851
8.04167	108.891	-0.183860
8.04333	108.909	-0.183867
8.04500	108.925	-0.183876
8.04667	108.942	-0.183885
8.04833	108.959	-0.183893
8.05000	108.974	-0.183899
8.05167	108.991	-0.183903
8.05333	109.009	-0.183905
8.05500	109.025	-0.183906
8.05667	109.042	-0.183906
8.05833	109.059	-0.183907
8.06000	109.075	-0.183909
8.06167	109.092	-0.183914
8.06333	109.108	-0.183922
8.06500	109.125	-0.183930
8.06667	109.142	-0.183938
8.06833	109.158	-0.183947
8.07000	109.174	-0.183956
8.07167	109.192	-0.183964
8.07333	109.209	-0.183970
8.07500	109.225	-0.183974
8.07667	109.242	-0.183977
8.07833	109.259	-0.183980
8.08000	109.275	-0.183984
8.08167	109.291	-0.183990
8.08333	109.307	-0.183997
8.08500	109.324	-0.184006
8.08667	109.342	-0.184018
8.08833	109.359	-0.184032
8.09000	109.376	-0.184043
8.09167	109.392	-0.184052
8.09333	109.408	-0.184057
8.09500	109.424	-0.184060
8.09667	109.442	-0.184062
8.09833	109.458	-0.184067
8.10000	109.474	-0.184071
8.10167	109.491	-0.184075
8.10333	109.509	-0.184082
8.10500	109.526	-0.184096
8.10667	109.542	-0.184119
8.10833	109.559	-0.184138
8.11000	109.575	-0.184149
8.11167	109.592	-0.184157
8.11333	109.610	-0.184163
8.11500	109.626	-0.184168
8.11667	109.642	-0.184172
8.11833	109.659	-0.184172
8.12000	109.676	-0.184171
8.12167	109.692	-0.184171
8.12333	109.708	-0.184174
8.12500	109.726	-0.184179
8.12667	109.742	-0.184188
8.12833	109.759	-0.184198
8.13000	109.776	-0.184206
8.13167	109.793	-0.184215
8.13333	109.809	-0.184225
8.13500	109.826	-0.184235
8.13667	109.842	-0.184243
8.13833	109.860	-0.184252
8.14000	109.876	-0.184258
8.14167	109.892	-0.184263
8.14333	109.909	-0.184266
8.14500	109.926	-0.184270
8.14667	109.943	-0.184276
8.14833	109.960	-0.184280
8.15000	109.975	-0.184284
8.15167	109.992	-0.184291
8.15333	110.009	-0.184298
8.15500	110.026	-0.184304
8.15667	110.042	-0.184310
8.15833	110.060	-0.184319
8.16000	110.075	-0.184327
8.16167	110.093	-0.184334
8.16333	110.110	-0.184340
8.16500	110.127	-0.184346
8.16667	110.143	-0.184353
8.16833	110.160	-0.184362
8.17000	110.176	-0.184373
8.17167	110.192	-0.184382
8.17333	110.209	-0.184390
8.17500	110.226	-0.184392
8.17667	110.242	-0.184395
8.17833	110.259	-0.184399
8.18000	110.275	-0.184404
8.18167	110.293	-0.184408
8.18333	110.309	-0.184414
8.18500	110.325	-0.184421
8.18667	110.342	-0.184427
8.18833	110.358	-0.184435
8.19000	110.376	-0.184440
8.19167	110.392	-0.184446
8.19333	110.409	-0.184451
8.19500	110.425	-0.184457
8.19667	110.442	-0.184463
8.19833	110.459	-0.184469
8.20000	110.475	-0.184477
8.20167	110.492	-0.184487
8.20333	110.509	-0.184496
8.20500	110.526	-0.184502
8.20667	110.543	-0.184505
8.20833	110.559	-0.184505
8.21000	110.576	-0.184507
8.21167	110.593	-0.184510
8.21333	110.610	-0.184514
8.21500	110.625	-0.184521
8.21667	110.642	-0.184531
8.21833	110.660	-0.184547
8.22000	110.676	-0.184593
8.22167	110.693	-0.184622
8.22333	110.709	-0.184634
8.22500	110.726	-0.184644
8.22667	110.742	-0.184652
8.22833	110.760	-0.184658
8.23000	110.776	-0.184663
8.23167	110.793	-0.184667
8.23333	110.808	-0.184669
8.23500	110.826	-0.184672
8.23667	110.842	-0.184676
8.23833	110.859	-0.184682
8.24000	110.876	-0.184689
8.24167	110.893	-0.184695
8.24333	110.909	-0.184701
8.24500	110.927	-0.184707
8.24667	110.943	-0.184714
8.24833	110.960	-0.184720
8.25000	110.975	-0.184727
8.25167	110.992	-0.184733
8.25333	111.009	-0.184740
8.25500	111.026	-0.184747
8.25667	111.042	-0.184756
8.25833	111.059	-0.184767
8.26000	111.076	-0.184788
8.26167	111.092	-0.184799
8.26333	111.110	-0.184810
8.26500	111.126	-0.184820
8.26667	111.143	-0.184828
8.26833	111.160	-0.184835
8.27000	111.177	-0.184841
8.27167	111.194	-0.184846
8.27333	111.210	-0.184851
8.27500	111.226	-0.184854
8.27667	111.243	-0.184857
8.27833	111.259	-0.184862
8.28000	111.277	-0.184867
8.28167	111.293	-0.184872
8.28333	111.309	-0.184878
8.28500	111.326	-0.184883
8.28667	111.342	-0.184890
8.28833	111.360	-0.184901
8.29000	111.376	-0.184912
8.29167	111.394	-0.184921
8.29333	111.409	-0.184929
8.29500	111.427	-0.184936
8.29667	111.444	-0.184944
8.29833	111.459	-0.184951
8.30000	111.476	-0.184958
8.30167	111.494	-0.184966
8.30333	111.510	-0.184975
8.30500	111.526	-0.184983
8.30667	111.544	-0.184994
8.30833	111.559	-0.185009
8.31000	111.576	-0.185019
8.31167	111.593	-0.185028
8.31333	111.610	-0.185033
8.31500	111.627	-0.185036
8.31667	111.644	-0.185041
8.31833	111.660	-0.185044
8.32000	111.676	-0.185046
8.32167	111.693	-0.185047
8.32333	111.710	-0.185046
8.32500	111.726	-0.185047
8.32667	111.743	-0.185050
8.32833	111.760	-0.185053
8.33000	111.776	-0.185056
8.33167	111.793	-0.185062
8.33333	111.811	-0.185070
8.33500	111.827	-0.185080
8.33667	111.844	-0.185090
8.33833	111.861	-0.185099
8.34000	111.877	-0.185109
8.34167	111.893	-0.185121
8.34333	111.910	-0.185131
8.34500	111.927	-0.185138
8.34667	111.943	-0.185143
8.34833	111.961	-0.185148
8.35000	111.977	-0.185153
8.35167	111.993	-0.185158
8.35333	112.011	-0.185166
8.35500	112.028	-0.185175
8.35667	112.044	-0.185184
8.35833	112.060	-0.185194
8.36000	112.077	-0.185205
8.36167	112.093	-0.185218
8.36333	112.110	-0.185230
8.36500	112.126	-0.185240
8.36667	112.143	-0.185249
8.36833	112.159	-0.185254
8.37000	112.177	-0.185260
8.37167	112.193	-0.185264
8.37333	112.211	-0.185271
8.37500	112.227	-0.185278
8.37667	112.243	-0.185284
8.37833	112.260	-0.185292
8.38000	112.277	-0.185300
8.38167	112.294	-0.185308
8.38333	112.310	-0.185311
8.38500	112.327	-0.185313
8.38667	112.342	-0.185316
8.38833	112.359	-0.185319
8.39000	112.377	-0.185322
8.39167	112.394	-0.185327
8.39333	112.411	-0.185332
8.39500	112.427	-0.185339
8.39667	112.444	-0.185348
8.39833	112.460	-0.185354
8.40000	112.476	-0.185358
8.40167	112.493	-0.185360
8.40333	112.511	-0.185361
8.40500	112.526	-0.185366
8.40667	112.543	-0.185369
8.40833	112.560	-0.185376
8.41000	112.577	-0.185382
8.41167	112.593	-0.185388
8.41333	112.610	-0.185395
8.41500	112.628	-0.185405
8.41667	112.644	-0.185414
8.41833	112.660	-0.185423
8.42000	112.676	-0.185432
8.42167	112.694	-0.185440
8.42333	112.710	-0.185447
8.42500	112.727	-0.185456
8.42667	112.743	-0.185466
8.42833	112.761	-0.185474
8.43000	112.777	-0.185479
8.43167	112.793	-0.185485
8.43333	112.810	-0.185493
8.43500	112.827	-0.185504
8.43667	112.843	-0.185516
8.43833	112.861	-0.185529
8.44000	112.876	-0.185540
8.44167	112.894	-0.185548
8.44333	112.909	-0.185554
8.44500	112.927	-0.185559
8.44667	112.943	-0.185562
8.44833	112.961	-0.185562
8.45000	112.977	-0.185562
8.45167	112.994	-0.185563
8.45333	113.010	-0.185565
8.45500	113.027	-0.185570
8.45667	113.044	-0.185575
8.45833	113.060	-0.185581
8.46000	113.077	-0.185586
8.46167	113.094	-0.185592
8.46333	113.110	-0.185599
8.46500	113.128	-0.185605
8.46667	113.144	-0.185610
8.46833	113.161	-0.185615
8.47000	113.178	-0.185623
8.47167	113.194	-0.185630
8.47333	113.211	-0.185635
8.47500	113.227	-0.185641
8.47667	113.244	-0.185649
8.47833	113.261	-0.185660
8.48000	113.277	-0.185672
8.48167	113.294	-0.185682
8.48333	113.311	-0.185690
8.48500	113.327	-0.185695
8.48667	113.344	-0.185700
8.48833	113.360	-0.185702
8.49000	113.377	-0.185706
8.49167	113.395	-0.185708
8.49333	113.410	-0.185710
8.49500	113.428	-0.185713
8.49667	113.444	-0.185718
8.49833	113.462	-0.185724
8.50000	113.477	-0.185730
8.50167	113.495	-0.185738
8.50333	113.511	-0.185746
8.50500	113.528	-0.185754
8.50667	113.545	-0.185760
8.50833	113.561	-0.185768
8.51000	113.578	-0.185778
8.51167	113.595	-0.185787
8.51333	113.611	-0.185796
8.51500	113.628	-0.185802
8.51667	113.643	-0.185807
8.51833	113.661	-0.185811
8.52000	113.678	-0.185815
8.52167	113.694	-0.185820
8.52333	113.711	-0.185825
8.52500	113.727	-0.185832
8.52667	113.744	-0.185840
8.52833	113.761	-0.185848
8.53000	113.777	-0.185857
8.53167	113.795	-0.185867
8.53333	113.811	-0.185874
8.53500	113.828	-0.185879
8.53667	113.845	-0.185883
8.53833	113.861	-0.185888
8.54000	113.877	-0.185892
8.54167	113.895	-0.185899
8.54333	113.910	-0.185907
8.54500	113.928	-0.185916
8.54667	113.944	-0.185926
8.54833	113.961	-0.185938
8.55000	113.978	-0.185950
8.55167	113.995	-0.185961
8.55333	114.011	-0.185971
8.55500	114.028	-0.185981
8.55667	114.044	-0.185990
8.55833	114.062	-0.186001
8.56000	114.078	-0.186012
8.56167	114.094	-0.186024
8.56333	114.110	-0.186032
8.56500	114.127	-0.186039
8.56667	114.144	-0.186045
8.56833	114.161	-0.186051
8.57000	114.177	-0.186056
8.57167	114.194	-0.186061
8.57333	114.211	-0.186065
8.57500	114.227	-0.186072
8.57667	114.245	-0.186080
8.57833	114.261	-0.186091
8.58000	114.278	-0.186103
8.58167	114.294	-0.186111
8.58333	114.311	-0.186118
8.58500	114.328	-0.186123
8.58667	114.344	-0.186127
8.58833	114.361	-0.186129
8.59000	114.378	-0.186131
8.59167	114.395	-0.186133
8.59333	114.411	-0.186136
8.59500	114.427	-0.186143
8.59667	114.445	-0.186150
8.59833	114.461	-0.186158
8.60000	114.478	-0.186166
8.60167	114.494	-0.186174
8.60333	114.510	-0.186183
8.60500	114.526	-0.186191
8.60667	114.544	-0.186201
8.60833	114.561	-0.186209
8.61000	114.578	-0.186216
8.61167	114.594	-0.186223
8.61333	114.611	-0.186232
8.61500	114.628	-0.186239
8.61667	114.644	-0.186243
8.61833	114.661	-0.186247
8.62000	114.678	-0.186252
8.62167	114.694	-0.186256
8.62333	114.711	-0.186259
8.62500	114.727	-0.186263
8.62667	114.744	-0.186267
8.62833	114.761	-0.186272
8.63000	114.778	-0.186277
8.63167	114.794	-0.186283
8.63333	114.811	-0.186290
8.63500	114.828	-0.186294
8.63667	114.845	-0.186301
8.63833	114.862	-0.186306
8.64000	114.879	-0.186314
8.64167	114.894	-0.186324
8.64333	114.911	-0.186334
8.64500	114.928	-0.186344
8.64667	114.945	-0.186356
8.64833	114.961	-0.186368
8.65000	114.977	-0.186378
8.65167	114.994	-0.186389
8.65333	115.012	-0.186396
8.65500	115.029	-0.186404
8.65667	115.045	-0.186409
8.65833	115.061	-0.186412
8.66000	115.078	-0.186415
8.66167	115.094	-0.186418
8.66333	115.111	-0.186421
8.66500	115.128	-0.186424
8.66667	115.144	-0.186427
8.66833	115.161	-0.186433
8.67000	115.178	-0.186441
8.67167	115.194	-0.186449
8.67333	115.210	-0.186458
8.67500	115.228	-0.186468
8.67667	115.244	-0.186478
8.67833	115.261	-0.186487
8.68000	115.279	-0.186494
8.68167	115.295	-0.186501
8.68333	115.311	-0.186509
8.68500	115.328	-0.186516
8.68667	115.345	-0.186519
8.68833	115.361	-0.186524
8.69000	115.378	-0.186530
8.69167	115.395	-0.186534
8.69333	115.412	-0.186542
8.69500	115.428	-0.186550
8.69667	115.446	-0.186561
8.69833	115.461	-0.186573
8.70000	115.478	-0.186596
8.70167	115.495	-0.186624
8.70333	115.512	-0.186650
8.70500	115.528	-0.186663
8.70667	115.544	-0.186676
8.70833	115.562	-0.186690
8.71000	115.579	-0.186698
8.71167	115.596	-0.186705
8.71333	115.612	-0.186710
8.71500	115.628	-0.186715
8.71667	115.645	-0.186719
8.71833	115.662	-0.186723
8.72000	115.679	-0.186725
8.72167	115.695	-0.186729
8.72333	115.712	-0.186733
8.72500	115.728	-0.186737
8.72667	115.746	-0.186740
8.72833	115.762	-0.186742
8.73000	115.779	-0.186743
8.73167	115.796	-0.186746
8.73333	115.814	-0.186749
8.73500	115.829	-0.186752
8.73667	115.846	-0.186756
8.73833	115.862	-0.186759
8.74000	115.878	-0.186767
8.74167	115.895	-0.186777
8.74333	115.912	-0.186788
8.74500	115.928	-0.186796
8.74667	115.945	-0.186805
8.74833	115.961	-0.186815
8.75000	115.979	-0.186824
8.75167	115.995	-0.186830
8.75333	116.012	-0.186836
8.75500	116.029	-0.186842
8.75667	116.046	-0.186848
8.75833	116.062	-0.186853
8.76000	116.078	-0.186859
8.76167	116.095	-0.186866
8.76333	116.112	-0.186872
8.76500	116.128	-0.186879
8.76667	116.145	-0.186885
8.76833	116.162	-0.186892
8.77000	116.178	-0.186899
8.77167	116.195	-0.186905
8.77333	116.212	-0.186912
8.77500	116.229	-0.186919
8.77667	116.245	-0.186926
8.77833	116.262	-0.186933
8.78000	116.277	-0.186941
8.78167	116.295	-0.186948
8.78333	116.312	-0.186956
8.78500	116.329	-0.186964
8.78667	116.346	-0.186973
8.78833	116.362	-0.186983
8.79000	116.378	-0.186993
8.79167	116.395	-0.187000
8.79333	116.412	-0.187005
8.79500	116.429	-0.187010
8.79667	116.445	-0.187013
8.79833	116.462	-0.187016
8.80000	116.478	-0.187018
8.80167	116.495	-0.187018
8.80333	116.511	-0.187020
8.80500	116.529	-0.187024
8.80667	116.545	-0.187032
8.80833	116.561	-0.187042
8.81000	116.578	-0.187054
8.81167	116.596	-0.187075
8.81333	116.612	-0.187106
8.81500	116.628	-0.187118
8.81667	116.645	-0.187128
8.81833	116.662	-0.187137
8.82000	116.679	-0.187144
8.82167	116.695	-0.187151
8.82333	116.712	-0.187158
8.82500	116.728	-0.187166
8.82667	116.745	-0.187177
8.82833	116.761	-0.187187
8.83000	116.779	-0.187198
8.83167	116.795	-0.187211
8.83333	116.813	-0.187220
8.83500	116.829	-0.187227
8.83667	116.845	-0.187232
8.83833	116.862	-0.187236
8.84000	116.878	-0.187242
8.84167	116.895	-0.187250
8.84333	116.911	-0.187258
8.84500	116.929	-0.187269
8.84667	116.945	-0.187280
8.84833	116.962	-0.187289
8.85000	116.979	-0.187297
8.85167	116.996	-0.187304
8.85333	117.013	-0.187308
8.85500	117.029	-0.187312
8.85667	117.046	-0.187314
8.85833	117.061	-0.187316
8.86000	117.079	-0.187321
8.86167	117.096	-0.187328
8.86333	117.112	-0.187338
8.86500	117.128	-0.187350
8.86667	117.145	-0.187361
8.86833	117.163	-0.187371
8.87000	117.179	-0.187381
8.87167	117.196	-0.187391
8.87333	117.213	-0.187400
8.87500	117.229	-0.187411
8.87667	117.245	-0.187419
8.87833	117.262	-0.187429
8.88000	117.279	-0.187438
8.88167	117.295	-0.187446
8.88333	117.312	-0.187456
8.88500	117.329	-0.187468
8.88667	117.345	-0.187478
8.88833	117.363	-0.187488
8.89000	117.379	-0.187498
8.89167	117.395	-0.187508
8.89333	117.413	-0.187521
8.89500	117.429	-0.187535
8.89667	117.446	-0.187546
8.89833	117.463	-0.187554
8.90000	117.480	-0.187560
8.90167	117.497	-0.187565
8.90333	117.513	-0.187572
8.90500	117.528	-0.187578
8.90667	117.546	-0.187584
8.90833	117.562	-0.187589
8.91000	117.578	-0.187598
8.91167	117.594	-0.187610
8.91333	117.612	-0.187623
8.91500	117.629	-0.187633
8.91667	117.645	-0.187641
8.91833	117.662	-0.187648
8.92000	117.679	-0.187655
8.92167	117.696	-0.187661
8.92333	117.712	-0.187665
8.92500	117.729	-0.187669
8.92667	117.746	-0.187674
8.92833	117.764	-0.187681
8.93000	117.779	-0.187690
8.93167	117.797	-0.187697
8.93333	117.812	-0.187704
8.93500	117.829	-0.187711
8.93667	117.846	-0.187718
8.93833	117.862	-0.187726
8.94000	117.878	-0.187733
8.94167	117.895	-0.187740
8.94333	117.912	-0.187747
8.94500	117.928	-0.187756
8.94667	117.945	-0.187767
8.94833	117.962	-0.187778
8.95000	117.978	-0.187790
8.95167	117.996	-0.187801
8.95333	118.012	-0.187811
8.95500	118.029	-0.187820
8.95667	118.046	-0.187826
8.95833	118.062	-0.187833
8.96000	118.079	-0.187836
8.96167	118.096	-0.187839
8.96333	118.111	-0.187838
8.96500	118.129	-0.187838
8.96667	118.145	-0.187839
8.96833	118.161	-0.187843
8.97000	118.179	-0.187850
8.97167	118.196	-0.187860
8.97333	118.213	-0.187871
8.97500	118.229	-0.187884
8.97667	118.246	-0.187897
8.97833	118.263	-0.187908
8.98000	118.279	-0.187919
8.98167	118.296	-0.187927
8.98333	118.313	-0.187933
8.98500	118.329	-0.187936
8.98667	118.346	-0.187939
8.98833	118.362	-0.187942
8.99000	118.379	-0.187946
8.99167	118.396	-0.187951
8.99333	118.413	-0.187957
8.99500	118.429	-0.187964
8.99667	118.445	-0.187973
8.99833	118.462	-0.187983
9.00000	118.480	-0.187995
9.00167	118.496	-0.188006
9.00333	118.513	-0.188015
9.00500	118.530	-0.188022
9.00667	118.547	-0.188030
9.00833	118.564	-0.188039
9.01000	118.580	-0.188049
9.01167	118.597	-0.188058
9.01333	118.613	-0.188067
9.01500	118.630	-0.188077
9.01667	118.647	-0.188087
9.01833	118.662	-0.188098
9.02000	118.680	-0.188109
9.02167	118.696	-0.188119
9.02333	118.712	-0.188126
9.02500	118.729	-0.188133
9.02667	118.747	-0.188140
9.02833	118.763	-0.188148
9.03000	118.780	-0.188155
9.03167	118.797	-0.188163
9.03333	118.814	-0.188173
9.03500	118.831	-0.188184
9.03667	118.847	-0.188196
9.03833	118.864	-0.188208
9.04000	118.881	-0.188220
9.04167	118.896	-0.188231
9.04333	118.914	-0.188239
9.04500	118.930	-0.188248
9.04667	118.947	-0.188254
9.04833	118.964	-0.188260
9.05000	118.980	-0.188265
9.05167	118.997	-0.188268
9.05333	119.014	-0.188271
9.05500	119.030	-0.188276
9.05667	119.047	-0.188281
9.05833	119.064	-0.188289
9.06000	119.080	-0.188298
9.06167	119.098	-0.188308
9.06333	119.114	-0.188316
9.06500	119.131	-0.188323
9.06667	119.148	-0.188330
9.06833	119.164	-0.188338
9.07000	119.181	-0.188345
9.07167	119.198	-0.188352
9.07333	119.215	-0.188360
9.07500	119.232	-0.188369
9.07667	119.247	-0.188378
9.07833	119.264	-0.188391
9.08000	119.280	-0.188413
9.08167	119.297	-0.188427
9.08333	119.314	-0.188446
9.08500	119.331	-0.188462
9.08667	119.347	-0.188476
9.08833	119.364	-0.188490
9.09000	119.381	-0.188501
9.09167	119.398	-0.188510
9.09333	119.415	-0.188519
9.09500	119.431	-0.188526
9.09667	119.448	-0.188533
9.09833	119.464	-0.188541
9.10000	119.481	-0.188552
9.10167	119.496	-0.188565
9.10333	119.514	-0.188585
9.10500	119.531	-0.188608
9.10667	119.547	-0.188629
9.10833	119.565	-0.188642
9.11000	119.580	-0.188653
9.11167	119.598	-0.188663
9.11333	119.614	-0.188671
9.11500	119.631	-0.188676
9.11667	119.647	-0.188681
9.11833	119.664	-0.188687
9.12000	119.680	-0.188692
9.12167	119.696	-0.188699
9.12333	119.713	-0.188707
9.12500	119.731	-0.188718
9.12667	119.747	-0.188730
9.12833	119.764	-0.188744
9.13000	119.780	-0.188758
9.13167	119.797	-0.188769
9.13333	119.814	-0.188778
9.13500	119.831	-0.188788
9.13667	119.847	-0.188797
9.13833	119.864	-0.188807
9.14000	119.881	-0.188816
9.14167	119.897	-0.188824
9.14333	119.914	-0.188832
9.14500	119.931	-0.188841
9.14667	119.947	-0.188853
9.14833	119.963	-0.188866
9.15000	119.980	-0.188878
9.15167	119.997	-0.188887
9.15333	120.013	-0.188896
9.15500	120.030	-0.188902
9.15667	120.047	-0.188907
9.15833	120.063	-0.188911
9.16000	120.080	-0.188915
9.16167	120.096	-0.188919
9.16333	120.113	-0.188923
9.16500	120.130	-0.188929
9.16667	120.146	-0.188941
9.16833	120.163	-0.188954
9.17000	120.180	-0.188968
9.17167	120.196	-0.188981
9.17333	120.214	-0.188999
9.17500	120.231	-0.189013
9.17667	120.247	-0.189027
9.17833	120.264	-0.189041
9.18000	120.280	-0.189054
9.18167	120.296	-0.189065
9.18333	120.313	-0.189076
9.18500	120.329	-0.189087
9.18667	120.346	-0.189096
9.18833	120.363	-0.189100
9.19000	120.380	-0.189105
9.19167	120.396	-0.189109
9.19333	120.412	-0.189115
9.19500	120.429	-0.189122
9.19667	120.446	-0.189130
9.19833	120.462	-0.189139
9.20000	120.479	-0.189146
9.20167	120.497	-0.189152
9.20333	120.513	-0.189160
9.20500	120.529	-0.189168
9.20667	120.546	-0.189176
9.20833	120.562	-0.189184
9.21000	120.580	-0.189194
9.21167	120.596	-0.189204
9.21333	120.613	-0.189217
9.21500	120.630	-0.189228
9.21667	120.647	-0.189239
9.21833	120.663	-0.189249
9.22000	120.680	-0.189258
9.22167	120.696	-0.189266
9.22333	120.713	-0.189275
9.22500	120.728	-0.189283
9.22667	120.745	-0.189290
9.22833	120.762	-0.189296
9.23000	120.779	-0.189302
9.23167	120.796	-0.189309
9.23333	120.813	-0.189315
9.23500	120.829	-0.189322
9.23667	120.845	-0.189328
9.23833	120.863	-0.189334
9.24000	120.880	-0.189342
9.24167	120.896	-0.189350
9.24333	120.914	-0.189357
9.24500	120.930	-0.189362
9.24667	120.947	-0.189368
9.24833	120.963	-0.189372
9.25000	120.980	-0.189375
9.25167	120.996	-0.189380
9.25333	121.013	-0.189387
9.25500	121.029	-0.189392
9.25667	121.046	-0.189398
9.25833	121.064	-0.189405
9.26000	121.079	-0.189411
9.26167	121.097	-0.189418
9.26333	121.113	-0.189426
9.26500	121.131	-0.189436
9.26667	121.147	-0.189445
9.26833	121.163	-0.189453
9.27000	121.179	-0.189462
9.27167	121.196	-0.189475
9.27333	121.213	-0.189485
9.27500	121.230	-0.189497
9.27667	121.247	-0.189509
9.27833	121.263	-0.189520
9.28000	121.280	-0.189532
9.28167	121.296	-0.189544
9.28333	121.314	-0.189555
9.28500	121.331	-0.189565
9.28667	121.347	-0.189573
9.28833	121.364	-0.189579
9.29000	121.380	-0.189587
9.29167	121.397	-0.189592
9.29333	121.414	-0.189598
9.29500	121.430	-0.189603
9.29667	121.447	-0.189611
9.29833	121.463	-0.189620
9.30000	121.480	-0.189630
9.30167	121.497	-0.189636
9.30333	121.514	-0.189644
9.30500	121.531	-0.189651
9.30667	121.546	-0.189657
9.30833	121.563	-0.189663
9.31000	121.580	-0.189667
9.31167	121.596	-0.189673
9.31333	121.613	-0.189677
9.31500	121.630	-0.189682
9.31667	121.646	-0.189690
9.31833	121.663	-0.189700
9.32000	121.680	-0.189711
9.32167	121.696	-0.189721
9.32333	121.713	-0.189730
9.32500	121.730	-0.189737
9.32667	121.746	-0.189746
9.32833	121.764	-0.189756
9.33000	121.780	-0.189765
9.33167	121.796	-0.189775
9.33333	121.814	-0.189786
9.33500	121.830	-0.189796
9.33667	121.847	-0.189807
9.33833	121.864	-0.189821
9.34000	121.879	-0.189837
9.34167	121.896	-0.189849
9.34333	121.913	-0.189861
9.34500	121.930	-0.189872
9.34667	121.946	-0.189884
9.34833	121.964	-0.189896
9.35000	121.980	-0.189907
9.35167	121.996	-0.189918
9.35333	122.013	-0.189926
9.35500	122.031	-0.189933
9.35667	122.047	-0.189940
9.35833	122.063	-0.189945
9.36000	122.081	-0.189950
9.36167	122.097	-0.189957
9.36333	122.114	-0.189965
9.36500	122.130	-0.189973
9.36667	122.146	-0.189985
9.36833	122.163	-0.189997
9.37000	122.180	-0.190009
9.37167	122.197	-0.190022
9.37333	122.214	-0.190034
9.37500	122.230	-0.190044
9.37667	122.247	-0.190052
9.37833	122.264	-0.190060
9.38000	122.281	-0.190067
9.38167	122.298	-0.190073
9.38333	122.314	-0.190080
9.38500	122.330	-0.190089
9.38667	122.347	-0.190098
9.38833	122.364	-0.190108
9.39000	122.380	-0.190122
9.39167	122.397	-0.190136
9.39333	122.412	-0.190148
9.39500	122.431	-0.190159
9.39667	122.447	-0.190169
9.39833	122.464	-0.190180
9.40000	122.480	-0.190188
9.40167	122.496	-0.190196
9.40333	122.514	-0.190203
9.40500	122.531	-0.190210
9.40667	122.547	-0.190219
9.40833	122.564	-0.190228
9.41000	122.581	-0.190238
9.41167	122.597	-0.190245
9.41333	122.614	-0.190254
9.41500	122.631	-0.190265
9.41667	122.648	-0.190276
9.41833	122.663	-0.190287
9.42000	122.681	-0.190299
9.42167	122.697	-0.190308
9.42333	122.714	-0.190318
9.42500	122.730	-0.190327
9.42667	122.747	-0.190336
9.42833	122.764	-0.190347
9.43000	122.780	-0.190358
9.43167	122.797	-0.190369
9.43333	122.814	-0.190383
9.43500	122.832	-0.190395
9.43667	122.847	-0.190407
9.43833	122.864	-0.190418
9.44000	122.881	-0.190429
9.44167	122.898	-0.190437
9.44333	122.915	-0.190444
9.44500	122.931	-0.190450
9.44667	122.948	-0.190454
9.44833	122.965	-0.190460
9.45000	122.981	-0.190465
9.45167	122.998	-0.190472
9.45333	123.014	-0.190479
9.45500	123.031	-0.190484
9.45667	123.047	-0.190491
9.45833	123.063	-0.190499
9.46000	123.081	-0.190507
9.46167	123.098	-0.190514
9.46333	123.114	-0.190523
9.46500	123.131	-0.190531
9.46667	123.148	-0.190539
9.46833	123.164	-0.190549
9.47000	123.181	-0.190560
9.47167	123.198	-0.190572
9.47333	123.214	-0.190585
9.47500	123.230	-0.190595
9.47667	123.247	-0.190604
9.47833	123.264	-0.190614
9.48000	123.281	-0.190624
9.48167	123.297	-0.190632
9.48333	123.315	-0.190639
9.48500	123.330	-0.190645
9.48667	123.347	-0.190650
9.48833	123.365	-0.190658
9.49000	123.382	-0.190668
9.49167	123.398	-0.190681
9.49333	123.413	-0.190694
9.49500	123.431	-0.190708
9.49667	123.447	-0.190722
9.49833	123.464	-0.190736
9.50000	123.481	-0.190746
9.50167	123.497	-0.190753
9.50333	123.515	-0.190754
9.50500	123.532	-0.190754
9.50667	123.547	-0.190752
9.50833	123.565	-0.190752
9.51000	123.581	-0.190756
9.51167	123.597	-0.190762
9.51333	123.615	-0.190770
9.51500	123.632	-0.190780
9.51667	123.648	-0.190789
9.51833	123.664	-0.190799
9.52000	123.681	-0.190809
9.52167	123.699	-0.190818
9.52333	123.715	-0.190827
9.52500	123.732	-0.190838
9.52667	123.748	-0.190850
9.52833	123.764	-0.190868
9.53000	123.781	-0.190891
9.53167	123.798	-0.190906
9.53333	123.814	-0.190919
9.53500	123.831	-0.190931
9.53667	123.848	-0.190942
9.53833	123.864	-0.190950
9.54000	123.881	-0.190958
9.54167	123.899	-0.190965
9.54333	123.915	-0.190971
9.54500	123.932	-0.190979
9.54667	123.948	-0.190987
9.54833	123.966	-0.190995
9.55000	123.982	-0.191004
9.55167	123.998	-0.191015
9.55333	124.015	-0.191027
9.55500	124.031	-0.191041
9.55667	124.048	-0.191055
9.55833	124.065	-0.191076
9.56000	124.082	-0.191089
9.56167	124.098	-0.191100
9.56333	124.115	-0.191110
9.56500	124.132	-0.191117
9.56667	124.149	-0.191120
9.56833	124.165	-0.191124
9.57000	124.182	-0.191126
9.57167	124.199	-0.191128
9.57333	124.215	-0.191133
9.57500	124.232	-0.191140
9.57667	124.248	-0.191148
9.57833	124.265	-0.191158
9.58000	124.282	-0.191167
9.58167	124.298	-0.191176
9.58333	124.314	-0.191185
9.58500	124.332	-0.191191
9.58667	124.348	-0.191198
9.58833	124.365	-0.191204
9.59000	124.381	-0.191208
9.59167	124.398	-0.191213
9.59333	124.415	-0.191221
9.59500	124.432	-0.191229
9.59667	124.447	-0.191237
9.59833	124.465	-0.191245
9.60000	124.482	-0.191251
9.60167	124.499	-0.191257
9.60333	124.516	-0.191264
9.60500	124.533	-0.191271
9.60667	124.549	-0.191279
9.60833	124.565	-0.191288
9.61000	124.582	-0.191298
9.61167	124.599	-0.191310
9.61333	124.615	-0.191328
9.61500	124.632	-0.191359
9.61667	124.648	-0.191380
9.61833	124.665	-0.191393
9.62000	124.682	-0.191406
9.62167	124.699	-0.191419
9.62333	124.715	-0.191430
9.62500	124.732	-0.191439
9.62667	124.749	-0.191447
9.62833	124.766	-0.191457
9.63000	124.783	-0.191467
9.63167	124.799	-0.191475
9.63333	124.816	-0.191484
9.63500	124.832	-0.191496
9.63667	124.850	-0.191507
9.63833	124.866	-0.191519
9.64000	124.883	-0.191531
9.64167	124.899	-0.191543
9.64333	124.916	-0.191554
9.64500	124.932	-0.191565
9.64667	124.949	-0.191576
9.64833	124.966	-0.191587
9.65000	124.983	-0.191597
9.65167	125.000	-0.191606
9.65333	125.017	-0.191615
9.65500	125.034	-0.191623
9.65667	125.050	-0.191632
9.65833	125.067	-0.191641
9.66000	125.083	-0.191651
9.66167	125.100	-0.191662
9.66333	125.117	-0.191670
9.66500	125.133	-0.191679
9.66667	125.150	-0.191689
9.66833	125.166	-0.191701
9.67000	125.183	-0.191715
9.67167	125.200	-0.191728
9.67333	125.216	-0.191740
9.67500	125.233	-0.191753
9.67667	125.249	-0.191768
9.67833	125.266	-0.191781
9.68000	125.283	-0.191791
9.68167	125.301	-0.191798
9.68333	125.316	-0.191804
9.68500	125.334	-0.191810
9.68667	125.349	-0.191817
9.68833	125.366	-0.191825
9.69000	125.383	-0.191834
9.69167	125.400	-0.191844
9.69333	125.416	-0.191855
9.69500	125.433	-0.191866
9.69667	125.449	-0.191878
9.69833	125.466	-0.191890
9.70000	125.483	-0.191901
9.70167	125.499	-0.191911
9.70333	125.516	-0.191921
9.70500	125.532	-0.191931
9.70667	125.549	-0.191941
9.70833	125.566	-0.191950
9.71000	125.584	-0.191957
9.71167	125.599	-0.191966
9.71333	125.616	-0.191975
9.71500	125.633	-0.191981
9.71667	125.650	-0.191986
9.71833	125.666	-0.191991
9.72000	125.683	-0.191998
9.72167	125.699	-0.192005
9.72333	125.716	-0.192013
9.72500	125.733	-0.192022
9.72667	125.750	-0.192032
9.72833	125.766	-0.192040
9.73000	125.783	-0.192049
9.73167	125.800	-0.192059
9.73333	125.817	-0.192067
9.73500	125.833	-0.192076
9.73667	125.849	-0.192082
9.73833	125.867	-0.192087
9.74000	125.883	-0.192092
9.74167	125.899	-0.192099
9.74333	125.917	-0.192106
9.74500	125.932	-0.192115
9.74667	125.949	-0.192124
9.74833	125.965	-0.192137
9.75000	125.983	-0.192150
9.75167	125.998	-0.192171
9.75333	126.016	-0.192196
9.75500	126.033	-0.192221
9.75667	126.050	-0.192234
9.75833	126.067	-0.192246
9.76000	126.083	-0.192258
9.76167	126.099	-0.192268
9.76333	126.117	-0.192277
9.76500	126.133	-0.192284
9.76667	126.149	-0.192295
9.76833	126.166	-0.192306
9.77000	126.183	-0.192314
9.77167	126.200	-0.192324
9.77333	126.217	-0.192333
9.77500	126.232	-0.192340
9.77667	126.249	-0.192347
9.77833	126.267	-0.192357
9.78000	126.283	-0.192368
9.78167	126.300	-0.192379
9.78333	126.316	-0.192390
9.78500	126.333	-0.192402
9.78667	126.349	-0.192413
9.78833	126.367	-0.192423
9.79000	126.383	-0.192434
9.79167	126.401	-0.192442
9.79333	126.417	-0.192446
9.79500	126.434	-0.192449
9.79667	126.450	-0.192452
9.79833	126.467	-0.192455
9.80000	126.483	-0.192459
9.80167	126.500	-0.192463
9.80333	126.516	-0.192466
9.80500	126.533	-0.192472
9.80667	126.549	-0.192483
9.80833	126.567	-0.192497
9.81000	126.583	-0.192511
9.81167	126.599	-0.192523
9.81333	126.617	-0.192536
9.81500	126.634	-0.192548
9.81667	126.650	-0.192558
9.81833	126.666	-0.192564
9.82000	126.684	-0.192571
9.82167	126.700	-0.192576
9.82333	126.717	-0.192582
9.82500	126.732	-0.192587
9.82667	126.750	-0.192591
9.82833	126.766	-0.192595
9.83000	126.784	-0.192599
9.83167	126.800	-0.192605
9.83333	126.817	-0.192611
9.83500	126.833	-0.192618
9.83667	126.849	-0.192625
9.83833	126.867	-0.192633
9.84000	126.883	-0.192642
9.84167	126.901	-0.192653
9.84333	126.916	-0.192665
9.84500	126.933	-0.192677
9.84667	126.950	-0.192689
9.84833	126.968	-0.192701
9.85000	126.983	-0.192712
9.85167	127.000	-0.192725
9.85333	127.017	-0.192743
9.85500	127.032	-0.192758
9.85667	127.050	-0.192771
9.85833	127.067	-0.192782
9.86000	127.083	-0.192795
9.86167	127.100	-0.192807
9.86333	127.118	-0.192819
9.86500	127.134	-0.192829
9.86667	127.150	-0.192837
9.86833	127.167	-0.192843
9.87000	127.183	-0.192850
9.87167	127.200	-0.192860
9.87333	127.217	-0.192871
9.87500	127.234	-0.192882
9.87667	127.250	-0.192892
9.87833	127.267	-0.192905
9.88000	127.284	-0.192917
9.88167	127.300	-0.192930
9.88333	127.317	-0.192943
9.88500	127.334	-0.192955
9.88667	127.351	-0.192966
9.88833	127.366	-0.192978
9.89000	127.383	-0.192987
9.89167	127.400	-0.192996
9.89333	127.417	-0.193002
9.89500	127.433	-0.193007
9.89667	127.451	-0.193012
9.89833	127.467	-0.193017
9.90000	127.484	-0.193025
9.90167	127.501	-0.193033
9.90333	127.517	-0.193044
9.90500	127.534	-0.193056
9.90667	127.550	-0.193068
9.90833	127.567	-0.193081
9.91000	127.584	-0.193092
9.91167	127.600	-0.193101
9.91333	127.616	-0.193107
9.91500	127.633	-0.193112
9.91667	127.650	-0.193116
9.91833	127.667	-0.193124
9.92000	127.683	-0.193130
9.92167	127.699	-0.193138
9.92333	127.717	-0.193146
9.92500	127.733	-0.193154
9.92667	127.750	-0.193165
9.92833	127.768	-0.193176
9.93000	127.783	-0.193186
9.93167	127.801	-0.193194
9.93333	127.817	-0.193203
9.93500	127.835	-0.193212
9.93667	127.851	-0.193223
9.93833	127.868	-0.193234
9.94000	127.883	-0.193246
9.94167	127.900	-0.193260
9.94333	127.917	-0.193272
9.94500	127.934	-0.193284
9.94667	127.951	-0.193295
9.94833	127.968	-0.193308
9.95000	127.984	-0.193318
9.95167	128.000	-0.193329
9.95333	128.017	-0.193337
9.95500	128.034	-0.193343
9.95667	128.051	-0.193351
9.95833	128.068	-0.193361
9.96000	128.085	-0.193370
9.96167	128.101	-0.193379
9.96333	128.118	-0.193389
9.96500	128.134	-0.193399
9.96667	128.150	-0.193412
9.96833	128.168	-0.193427
9.97000	128.185	-0.193450
9.97167	128.201	-0.193464
9.97333	128.217	-0.193475
9.97500	128.234	-0.193485
9.97667	128.251	-0.193494
9.97833	128.267	-0.193501
9.98000	128.284	-0.193507
9.98167	128.300	-0.193510
9.98333	128.317	-0.193514
9.98500	128.333	-0.193518
9.98667	128.351	-0.193525
9.98833	128.366	-0.193533
9.99000	128.383	-0.193544
9.99167	128.400	-0.193556
9.99333	128.417	-0.193568
9.99500	128.434	-0.193582
9.99667	128.450	-0.193595
9.99833	128.467	-0.193608
10.0000	128.484	-0.193620
10.0017	128.501	-0.193630
10.0033	128.517	-0.193640
10.0050	128.534	-0.193651
10.0067	128.550	-0.193661
10.0083	128.567	-0.193670
10.0100	128.584	-0.193680
10.0117	128.600	-0.193692
10.0133	128.617	-0.193705
10.0150	128.634	-0.193723
10.0167	128.651	-0.193738
10.0183	128.667	-0.193756
10.0200	128.683	-0.193783
10.0217	128.700	-0.193798
10.0233	128.717	-0.193815
10.0250	128.733	-0.193829
10.0267	128.750	-0.193841
10.0283	128.766	-0.193851
10.0300	128.783	-0.193861
10.0317	128.799	-0.193871
10.0333	128.816	-0.193880
10.0350	128.833	-0.193888
10.0367	128.849	-0.193896
10.0383	128.866	-0.193906
10.0400	128.883	-0.193916
10.0417	128.900	-0.193925
10.0433	128.917	-0.193932
10.0450	128.933	-0.193939
10.0467	128.950	-0.193943
10.0483	128.966	-0.193949
10.0500	128.984	-0.193956
10.0517	128.999	-0.193963
10.0533	129.016	-0.193972
10.0550	129.032	-0.193979
10.0567	129.049	-0.193990
10.0583	129.066	-0.194003
10.0600	129.083	-0.194016
10.0617	129.099	-0.194030
10.0633	129.116	-0.194056
10.0650	129.133	-0.194071
10.0667	129.149	-0.194086
10.0683	129.167	-0.194100
10.0700	129.183	-0.194114
10.0717	129.200	-0.194128
10.0733	129.216	-0.194141
10.0750	129.232	-0.194152
10.0767	129.249	-0.194162
10.0783	129.267	-0.194171
10.0800	129.283	-0.194181
10.0817	129.299	-0.194190
10.0833	129.316	-0.194199
10.0850	129.333	-0.194205
10.0867	129.349	-0.194213
10.0883	129.366	-0.194219
10.0900	129.383	-0.194228
10.0917	129.400	-0.194236
10.0933	129.416	-0.194244
10.0950	129.433	-0.194253
10.0967	129.449	-0.194264
10.0983	129.467	-0.194276
10.1000	129.483	-0.194291
10.1017	129.499	-0.194304
10.1033	129.516	-0.194316
10.1050	129.532	-0.194330
10.1067	129.550	-0.194341
10.1083	129.565	-0.194354
10.1100	129.582	-0.194366
10.1117	129.600	-0.194379
10.1133	129.616	-0.194390
10.1150	129.632	-0.194400
10.1167	129.650	-0.194410
10.1183	129.666	-0.194421
10.1200	129.683	-0.194430
10.1217	129.700	-0.194440
10.1233	129.716	-0.194450
10.1250	129.733	-0.194460
10.1267	129.749	-0.194470
10.1283	129.767	-0.194482
10.1300	129.783	-0.194495
10.1317	129.800	-0.194507
10.1333	129.816	-0.194521
10.1350	129.833	-0.194533
10.1367	129.850	-0.194548
10.1383	129.866	-0.194562
10.1400	129.884	-0.194575
10.1417	129.899	-0.194587
10.1433	129.916	-0.194599
10.1450	129.933	-0.194609
10.1467	129.950	-0.194620
10.1483	129.966	-0.194632
10.1500	129.983	-0.194643
10.1517	130.000	-0.194655
10.1533	130.016	-0.194668
10.1550	130.033	-0.194681
10.1567	130.049	-0.194693
10.1583	130.067	-0.194706
10.1600	130.083	-0.194717
10.1617	130.099	-0.194729
10.1633	130.116	-0.194742
10.1650	130.133	-0.194756
10.1667	130.150	-0.194768
10.1683	130.165	-0.194779
10.1700	130.183	-0.194792
10.1717	130.199	-0.194806
10.1733	130.215	-0.194822
10.1750	130.232	-0.194837
10.1767	130.250	-0.194850
10.1783	130.266	-0.194863
10.1800	130.282	-0.194878
10.1817	130.298	-0.194891
10.1833	130.316	-0.194902
10.1850	130.333	-0.194911
10.1867	130.349	-0.194921
10.1883	130.366	-0.194933
10.1900	130.383	-0.194947
10.1917	130.400	-0.194963
10.1933	130.416	-0.194980
10.1950	130.433	-0.194995
10.1967	130.449	-0.195011
10.1983	130.467	-0.195026
10.2000	130.482	-0.195038
10.2017	130.499	-0.195048
10.2033	130.516	-0.195057
10.2050	130.532	-0.195068
10.2067	130.548	-0.195081
10.2083	130.567	-0.195096
10.2100	130.582	-0.195113
10.2117	130.600	-0.195128
10.2133	130.616	-0.195143
10.2150	130.633	-0.195159
10.2167	130.650	-0.195175
10.2183	130.667	-0.195191
10.2200	130.683	-0.195204
10.2217	130.699	-0.195216
10.2233	130.716	-0.195230
10.2250	130.732	-0.195244
10.2267	130.750	-0.195260
10.2283	130.766	-0.195275
10.2300	130.783	-0.195289
10.2317	130.800	-0.195304
10.2333	130.816	-0.195318
10.2350	130.833	-0.195331
10.2367	130.850	-0.195343
10.2383	130.867	-0.195352
10.2400	130.883	-0.195361
10.2417	130.899	-0.195371
10.2433	130.916	-0.195382
10.2450	130.933	-0.195396
10.2467	130.948	-0.195408
10.2483	130.966	-0.195420
10.2500	130.983	-0.195435
10.2517	130.999	-0.195450
10.2533	131.016	-0.195465
10.2550	131.033	-0.195480
10.2567	131.050	-0.195494
10.2583	131.066	-0.195507
10.2600	131.083	-0.195521
10.2617	131.100	-0.195537
10.2633	131.116	-0.195554
10.2650	131.133	-0.195571
10.2667	131.150	-0.195587
10.2683	131.167	-0.195601
10.2700	131.183	-0.195616
10.2717	131.200	-0.195633
10.2733	131.217	-0.195649
10.2750	131.234	-0.195666
10.2767	131.250	-0.195680
10.2783	131.266	-0.195694
10.2800	131.283	-0.195708
10.2817	131.299	-0.195721
10.2833	131.316	-0.195735
10.2850	131.333	-0.195750
10.2867	131.350	-0.195765
10.2883	131.366	-0.195778
10.2900	131.382	-0.195791
10.2917	131.400	-0.195806
10.2933	131.416	-0.195821
10.2950	131.433	-0.195834
10.2967	131.449	-0.195845
10.2983	131.467	-0.195856
10.3000	131.483	-0.195868
10.3017	131.499	-0.195882
10.3033	131.517	-0.195898
10.3050	131.533	-0.195915
10.3067	131.549	-0.195931
10.3083	131.567	-0.195942
10.3100	131.583	-0.195957
10.3117	131.599	-0.195973
10.3133	131.616	-0.195988
10.3150	131.633	-0.196001
10.3167	131.648	-0.196015
10.3183	131.665	-0.196031
10.3200	131.682	-0.196049
10.3217	131.699	-0.196069
10.3233	131.716	-0.196094
10.3250	131.732	-0.196117
10.3267	131.749	-0.196133
10.3283	131.766	-0.196148
10.3300	131.782	-0.196166
10.3317	131.800	-0.196184
10.3333	131.816	-0.196199
10.3350	131.833	-0.196215
10.3367	131.849	-0.196231
10.3383	131.865	-0.196249
10.3400	131.882	-0.196267
10.3417	131.900	-0.196281
10.3433	131.916	-0.196294
10.3450	131.933	-0.196305
10.3467	131.951	-0.196314
10.3483	131.966	-0.196322
10.3500	131.983	-0.196330
10.3517	132.000	-0.196340
10.3533	132.016	-0.196349
10.3550	132.034	-0.196363
10.3567	132.050	-0.196380
10.3583	132.066	-0.196398
10.3600	132.082	-0.196414
10.3617	132.099	-0.196432
10.3633	132.117	-0.196447
10.3650	132.133	-0.196459
10.3667	132.150	-0.196469
10.3683	132.166	-0.196481
10.3700	132.183	-0.196496
10.3717	132.199	-0.196513
10.3733	132.217	-0.196531
10.3750	132.234	-0.196556
10.3767	132.250	-0.196599
10.3783	132.268	-0.196645
10.3800	132.283	-0.196696
10.3817	132.300	-0.196716
10.3833	132.318	-0.196732
10.3850	132.333	-0.196749
10.3867	132.349	-0.196765
10.3883	132.366	-0.196782
10.3900	132.383	-0.196798
10.3917	132.400	-0.196813
10.3933	132.416	-0.196826
10.3950	132.433	-0.196840
10.3967	132.450	-0.196855
10.3983	132.467	-0.196872
10.4000	132.483	-0.196890
10.4017	132.499	-0.196908
10.4033	132.517	-0.196939
10.4050	132.533	-0.196963
10.4067	132.549	-0.196986
10.4083	132.567	-0.197005
10.4100	132.582	-0.197025
10.4117	132.600	-0.197043
10.4133	132.616	-0.197058
10.4150	132.633	-0.197073
10.4167	132.650	-0.197088
10.4183	132.665	-0.197105
10.4200	132.683	-0.197123
10.4217	132.700	-0.197144
10.4233	132.716	-0.197164
10.4250	132.732	-0.197187
10.4267	132.750	-0.197216
10.4283	132.766	-0.197253
10.4300	132.783	-0.197279
10.4317	132.799	-0.197299
10.4333	132.817	-0.197315
10.4350	132.833	-0.197329
10.4367	132.850	-0.197342
10.4383	132.866	-0.197354
10.4400	132.883	-0.197366
10.4417	132.899	-0.197380
10.4433	132.916	-0.197395
10.4450	132.933	-0.197410
10.4467	132.950	-0.197428
10.4483	132.966	-0.197447
10.4500	132.982	-0.197465
10.4517	132.999	-0.197483
10.4533	133.015	-0.197499
10.4550	133.033	-0.197515
10.4567	133.049	-0.197532
10.4583	133.066	-0.197549
10.4600	133.083	-0.197567
10.4617	133.099	-0.197585
10.4633	133.116	-0.197604
10.4650	133.133	-0.197625
10.4667	133.149	-0.197648
10.4683	133.166	-0.197667
10.4700	133.182	-0.197687
10.4717	133.199	-0.197707
10.4733	133.215	-0.197725
10.4750	133.232	-0.197743
10.4767	133.249	-0.197761
10.4783	133.266	-0.197780
10.4800	133.282	-0.197799
10.4817	133.299	-0.197819
10.4833	133.315	-0.197840
10.4850	133.333	-0.197866
10.4867	133.350	-0.197887
10.4883	133.366	-0.197921
10.4900	133.383	-0.197988
10.4917	133.400	-0.198049
10.4933	133.416	-0.198085
10.4950	133.433	-0.198109
10.4967	133.450	-0.198132
10.4983	133.467	-0.198152
10.5000	133.484	-0.198171
10.5017	133.500	-0.198190
10.5033	133.517	-0.198208
10.5050	133.533	-0.198225
10.5067	133.550	-0.198243
10.5083	133.567	-0.198263
10.5100	133.583	-0.198283
10.5117	133.600	-0.198303
10.5133	133.616	-0.198326
10.5150	133.633	-0.198348
10.5167	133.650	-0.198369
10.5183	133.667	-0.198387
10.5200	133.682	-0.198405
10.5217	133.700	-0.198422
10.5233	133.716	-0.198437
10.5250	133.732	-0.198454
10.5267	133.750	-0.198472
10.5283	133.766	-0.198492
10.5300	133.782	-0.198512
10.5317	133.799	-0.198533
10.5333	133.815	-0.198553
10.5350	133.832	-0.198575
10.5367	133.848	-0.198596
10.5383	133.865	-0.198618
10.5400	133.883	-0.198642
10.5417	133.899	-0.198663
10.5433	133.915	-0.198685
10.5450	133.932	-0.198706
10.5467	133.949	-0.198727
10.5483	133.966	-0.198750
10.5500	133.983	-0.198772
10.5517	133.999	-0.198795
10.5533	134.015	-0.198817
10.5550	134.032	-0.198837
10.5567	134.048	-0.198858
10.5583	134.066	-0.198881
10.5600	134.082	-0.198903
10.5617	134.098	-0.198923
10.5633	134.115	-0.198941
10.5650	134.132	-0.198959
10.5667	134.150	-0.198977
10.5683	134.165	-0.198998
10.5700	134.182	-0.199019
10.5717	134.199	-0.199043
10.5733	134.216	-0.199091
10.5750	134.232	-0.199176
10.5767	134.249	-0.199263
10.5783	134.265	-0.199328
10.5800	134.282	-0.199366
10.5817	134.298	-0.199390
10.5833	134.315	-0.199413
10.5850	134.332	-0.199433
10.5867	134.349	-0.199452
10.5883	134.365	-0.199470
10.5900	134.382	-0.199489
10.5917	134.398	-0.199510
10.5933	134.415	-0.199533
10.5950	134.432	-0.199556
10.5967	134.448	-0.199578
10.5983	134.466	-0.199599
10.6000	134.482	-0.199620
10.6017	134.499	-0.199641
10.6033	134.515	-0.199660
10.6050	134.533	-0.199680
10.6067	134.549	-0.199702
10.6083	134.565	-0.199726
10.6100	134.583	-0.199768
10.6117	134.599	-0.199815
10.6133	134.616	-0.199856
10.6150	134.632	-0.199897
10.6167	134.649	-0.199921
10.6183	134.665	-0.199967
10.6200	134.682	-0.200026
10.6217	134.698	-0.200066
10.6233	134.715	-0.200090
10.6250	134.733	-0.200114
10.6267	134.749	-0.200137
10.6283	134.766	-0.200160
10.6300	134.783	-0.200185
10.6317	134.799	-0.200206
10.6333	134.816	-0.200226
10.6350	134.832	-0.200244
10.6367	134.848	-0.200262
10.6383	134.866	-0.200281
10.6400	134.881	-0.200302
10.6417	134.899	-0.200324
10.6433	134.915	-0.200356
10.6450	134.932	-0.200405
10.6467	134.948	-0.200492
10.6483	134.965	-0.200598
10.6500	134.982	-0.200683
10.6517	134.999	-0.200738
10.6533	135.015	-0.200761
10.6550	135.032	-0.200781
10.6567	135.050	-0.200799
10.6583	135.066	-0.200817
10.6600	135.083	-0.200833
10.6617	135.099	-0.200853
10.6633	135.116	-0.200874
10.6650	135.132	-0.200905
10.6667	135.149	-0.200966
10.6683	135.165	-0.201035
10.6700	135.183	-0.201084
10.6717	135.199	-0.201126
10.6733	135.217	-0.201163
10.6750	135.233	-0.201193
10.6767	135.249	-0.201220
10.6783	135.266	-0.201246
10.6800	135.283	-0.201275
10.6817	135.299	-0.201300
10.6833	135.316	-0.201354
10.6850	135.332	-0.201438
10.6867	135.349	-0.201521
10.6883	135.366	-0.201566
10.6900	135.382	-0.201643
10.6917	135.399	-0.201707
10.6933	135.415	-0.201759
10.6950	135.432	-0.201783
10.6967	135.449	-0.201807
10.6983	135.466	-0.201832
10.7000	135.483	-0.201867
10.7017	135.499	-0.201890
10.7033	135.517	-0.201917
10.7050	135.533	-0.201941
10.7067	135.549	-0.201963
10.7083	135.565	-0.202012
10.7100	135.583	-0.202103
10.7117	135.598	-0.202231
10.7133	135.615	-0.202319
10.7150	135.632	-0.202417
10.7167	135.648	-0.202534
10.7183	135.666	-0.202605
10.7200	135.682	-0.202664
10.7217	135.699	-0.202688
10.7233	135.715	-0.202708
10.7250	135.732	-0.202727
10.7267	135.748	-0.202761
10.7283	135.766	-0.202791
10.7300	135.781	-0.202814
10.7317	135.799	-0.202877
10.7333	135.815	-0.202977
10.7350	135.832	-0.203141
10.7367	135.848	-0.203249
10.7383	135.865	-0.203349
10.7400	135.882	-0.203392
10.7417	135.899	-0.203414
10.7433	135.915	-0.203453
10.7450	135.932	-0.203492
10.7467	135.948	-0.203521
10.7483	135.965	-0.203552
10.7500	135.982	-0.203575
10.7517	135.999	-0.203612
10.7533	136.016	-0.203642
10.7550	136.032	-0.203671
10.7567	136.049	-0.203707
10.7583	136.065	-0.203749
10.7600	136.082	-0.203786
10.7617	136.097	-0.203837
10.7633	136.115	-0.203887
10.7650	136.132	-0.203964
10.7667	136.148	-0.204061
10.7683	136.165	-0.204170
10.7700	136.181	-0.204210
10.7717	136.198	-0.204232
10.7733	136.215	-0.204263
10.7750	136.232	-0.204283
10.7767	136.249	-0.204303
10.7783	136.265	-0.204322
10.7800	136.281	-0.204340
10.7817	136.298	-0.204359
10.7833	136.315	-0.204382
10.7850	136.332	-0.204404
10.7867	136.349	-0.204426
10.7883	136.365	-0.204447
10.7900	136.382	-0.204470
10.7917	136.399	-0.204496
10.7933	136.414	-0.204548
10.7950	136.431	-0.204635
10.7967	136.448	-0.204732
10.7983	136.465	-0.204807
10.8000	136.482	-0.204866
10.8017	136.498	-0.204992
10.8033	136.515	-0.205124
10.8050	136.532	-0.205178
10.8067	136.548	-0.205211
10.8083	136.565	-0.205242
10.8100	136.582	-0.205265
10.8117	136.598	-0.205288
10.8133	136.615	-0.205316
10.8150	136.631	-0.205340
10.8167	136.648	-0.205365
10.8183	136.665	-0.205389
10.8200	136.681	-0.205428
10.8217	136.697	-0.205464
10.8233	136.715	-0.205489
10.8250	136.730	-0.205515
10.8267	136.748	-0.205541
10.8283	136.765	-0.205566
10.8300	136.781	-0.205619
10.8317	136.798	-0.205690
10.8333	136.815	-0.205743
10.8350	136.831	-0.205788
10.8367	136.848	-0.205815
10.8383	136.865	-0.205840
10.8400	136.881	-0.205864
10.8417	136.897	-0.205888
10.8433	136.914	-0.205912
10.8450	136.931	-0.205935
10.8467	136.947	-0.205960
10.8483	136.965	-0.205995
10.8500	136.981	-0.206031
10.8517	136.998	-0.206076
10.8533	137.015	-0.206122
10.8550	137.031	-0.206184
10.8567	137.048	-0.206241
10.8583	137.064	-0.206270
10.8600	137.081	-0.206312
10.8617	137.098	-0.206381
10.8633	137.115	-0.206452
10.8650	137.131	-0.206517
10.8667	137.148	-0.206616
10.8683	137.164	-0.206697
10.8700	137.182	-0.206775
10.8717	137.198	-0.206831
10.8733	137.214	-0.206888
10.8750	137.231	-0.206949
10.8767	137.248	-0.207017
10.8783	137.265	-0.207095
10.8800	137.282	-0.207179
10.8817	137.298	-0.207250
10.8833	137.315	-0.207299
10.8850	137.331	-0.207332
10.8867	137.348	-0.207359
10.8883	137.365	-0.207393
10.8900	137.381	-0.207419
10.8917	137.397	-0.207445
10.8933	137.414	-0.207470
10.8950	137.429	-0.207495
10.8967	137.448	-0.207536
10.8983	137.464	-0.207630
10.9000	137.481	-0.207749
10.9017	137.497	-0.207904
10.9033	137.514	-0.208023
10.9050	137.531	-0.208129
10.9067	137.548	-0.208275
10.9083	137.565	-0.208437
10.9100	137.582	-0.208551
10.9117	137.599	-0.208631
10.9133	137.616	-0.208664
10.9150	137.634	-0.208689
10.9167	137.648	-0.208714
10.9183	137.665	-0.208738
10.9200	137.681	-0.208796
10.9217	137.699	-0.208827
10.9233	137.715	-0.208850
10.9250	137.731	-0.208875
10.9267	137.748	-0.208913
10.9283	137.764	-0.208979
10.9300	137.781	-0.209098
10.9317	137.798	-0.209271
10.9333	137.814	-0.209505
10.9350	137.831	-0.209807
10.9367	137.848	-0.210038
10.9383	137.863	-0.210207
10.9400	137.880	-0.210333
10.9417	137.897	-0.210422
10.9433	137.914	-0.210534
10.9450	137.930	-0.210590
10.9467	137.947	-0.210651
10.9483	137.964	-0.210725
10.9500	137.980	-0.210800
10.9517	137.997	-0.210906
10.9533	138.014	-0.211088
10.9550	138.030	-0.211299
10.9567	138.048	-0.211474
10.9583	138.064	-0.211635
10.9600	138.080	-0.211763
10.9617	138.098	-0.211867
10.9633	138.115	-0.211946
10.9650	138.131	-0.212011
10.9667	138.147	-0.212063
10.9683	138.164	-0.212114
10.9700	138.181	-0.212158
10.9717	138.197	-0.212216
10.9733	138.214	-0.212277
10.9750	138.231	-0.212346
10.9767	138.247	-0.212423
10.9783	138.264	-0.212565
10.9800	138.280	-0.212688
10.9817	138.297	-0.212885
10.9833	138.313	-0.213038
10.9850	138.330	-0.213159
10.9867	138.346	-0.213309
10.9883	138.364	-0.213457
10.9900	138.380	-0.213548
10.9917	138.396	-0.213593
10.9933	138.414	-0.213612
10.9950	138.430	-0.213633
10.9967	138.446	-0.213664
10.9983	138.463	-0.213708
11.0000	138.479	-0.213822
11.0017	138.496	-0.213981
11.0033	138.513	-0.214138
11.0050	138.529	-0.214371
11.0067	138.546	-0.214689
11.0083	138.562	-0.215021
11.0100	138.579	-0.215311
11.0117	138.596	-0.215479
11.0133	138.612	-0.215611
11.0150	138.630	-0.215726
11.0167	138.646	-0.215873
11.0183	138.662	-0.216090
11.0200	138.679	-0.216318
11.0217	138.695	-0.216503
11.0233	138.711	-0.216718
11.0250	138.729	-0.216934
11.0267	138.746	-0.217172
11.0283	138.763	-0.217413
11.0300	138.779	-0.217584
11.0317	138.795	-0.217727
11.0333	138.812	-0.217817
11.0350	138.829	-0.217904
11.0367	138.845	-0.218020
11.0383	138.862	-0.218181
11.0400	138.879	-0.218320
11.0417	138.895	-0.218484
11.0433	138.911	-0.218672
11.0450	138.928	-0.218876
11.0467	138.945	-0.219137
11.0483	138.962	-0.219376
11.0500	138.978	-0.219520
11.0517	138.994	-0.219640
11.0533	139.011	-0.219722
11.0550	139.028	-0.219822
11.0567	139.044	-0.219907
11.0583	139.062	-0.220008
11.0600	139.079	-0.220135
11.0617	139.096	-0.220234
11.0633	139.111	-0.220341
11.0650	139.129	-0.220490
11.0667	139.145	-0.220775
11.0683	139.161	-0.221137
11.0700	139.177	-0.221582
11.0717	139.194	-0.221960
11.0733	139.211	-0.222316
11.0750	139.227	-0.222694
11.0767	139.244	-0.223032
11.0783	139.261	-0.223350
11.0800	139.277	-0.223516
11.0817	139.293	-0.223610
11.0833	139.310	-0.223693
11.0850	139.327	-0.223791
11.0867	139.344	-0.223936
11.0883	139.361	-0.224073
11.0900	139.377	-0.224181
11.0917	139.394	-0.224323
11.0933	139.411	-0.224502
11.0950	139.426	-0.224792
11.0967	139.442	-0.225146
11.0983	139.459	-0.225490
11.1000	139.476	-0.225803
11.1017	139.494	-0.226181
11.1033	139.509	-0.226524
11.1050	139.526	-0.226846
11.1067	139.542	-0.227215
11.1083	139.558	-0.227592
11.1100	139.576	-0.227977
11.1117	139.591	-0.228428
11.1133	139.609	-0.228921
11.1150	139.625	-0.229379
11.1167	139.643	-0.229737
11.1183	139.659	-0.230114
11.1200	139.676	-0.230609
11.1217	139.693	-0.230941
11.1233	139.709	-0.231197
11.1250	139.725	-0.231410
11.1267	139.742	-0.231564
11.1283	139.757	-0.231681
11.1300	139.775	-0.231799
11.1317	139.791	-0.231925
11.1333	139.807	-0.232018
11.1350	139.824	-0.232196
11.1367	139.841	-0.232407
11.1383	139.858	-0.232734
11.1400	139.874	-0.233113
11.1417	139.891	-0.233566
11.1433	139.907	-0.233932
11.1450	139.924	-0.234325
11.1467	139.940	-0.234702
11.1483	139.956	-0.235037
11.1500	139.973	-0.235367
11.1517	139.989	-0.235728
11.1533	140.007	-0.236169
11.1550	140.024	-0.236681
11.1567	140.039	-0.237329
11.1583	140.056	-0.237936
11.1600	140.072	-0.238518
11.1617	140.090	-0.239048
11.1633	140.106	-0.239661
11.1650	140.122	-0.240185
11.1667	140.138	-0.240614
11.1683	140.155	-0.240944
11.1700	140.172	-0.241300
11.1717	140.188	-0.241614
11.1733	140.205	-0.242165
11.1750	140.222	-0.242901
11.1767	140.237	-0.243505
11.1783	140.256	-0.243914
11.1800	140.272	-0.244411
11.1817	140.288	-0.244922
11.1833	140.305	-0.245176
11.1850	140.320	-0.245591
11.1867	140.336	-0.245916
11.1883	140.353	-0.246388
11.1900	140.369	-0.246924
11.1917	140.386	-0.247707
11.1933	140.403	-0.248418
11.1950	140.419	-0.249081
11.1967	140.436	-0.249962
11.1983	140.452	-0.250550
11.2000	140.468	-0.251266
11.2017	140.485	-0.251634
11.2033	140.501	-0.252165
11.2050	140.517	-0.252698
11.2067	140.535	-0.253205
11.2083	140.551	-0.253893
11.2100	140.568	-0.254392
11.2117	140.584	-0.254798
11.2133	140.601	-0.255503
11.2150	140.617	-0.256638
11.2167	140.633	-0.257547
11.2183	140.650	-0.258259
11.2200	140.667	-0.258901
11.2217	140.682	-0.259794
11.2233	140.699	-0.260830
11.2250	140.715	-0.261484
11.2267	140.732	-0.262203
11.2283	140.748	-0.262672
11.2300	140.765	-0.263527
11.2317	140.780	-0.264391
11.2333	140.797	-0.265362
11.2350	140.814	-0.266158
11.2367	140.830	-0.266765
11.2383	140.847	-0.267546
11.2400	140.863	-0.268641
11.2417	140.878	-0.269720
11.2433	140.895	-0.271106
11.2450	140.912	-0.272229
11.2467	140.927	-0.273357
11.2483	140.945	-0.274638
11.2500	140.960	-0.275945
11.2517	140.977	-0.277011
11.2533	140.993	-0.277622
11.2550	141.009	-0.278612
11.2567	141.026	-0.279581
11.2583	141.042	-0.280516
11.2600	141.059	-0.281586
11.2617	141.075	-0.282794
11.2633	141.091	-0.284184
11.2650	141.108	-0.285620
11.2667	141.123	-0.287106
11.2683	141.139	-0.288505
11.2700	141.156	-0.290052
11.2717	141.172	-0.291427
11.2733	141.188	-0.292908
11.2750	141.205	-0.294589
11.2767	141.221	-0.296303
11.2783	141.237	-0.297893
11.2800	141.253	-0.299355
11.2817	141.269	-0.300969
11.2833	141.286	-0.302637
11.2850	141.302	-0.304434
11.2867	141.318	-0.306192
11.2883	141.335	-0.308083
11.2900	141.351	-0.309955
11.2917	141.366	-0.311831
11.2933	141.382	-0.313780
11.2950	141.399	-0.316075
11.2967	141.415	-0.318051
11.2983	141.430	-0.320359
11.3000	141.446	-0.322505
11.3017	141.462	-0.324910
11.3033	141.478	-0.327244
11.3050	141.495	-0.329768
11.3067	141.510	-0.332488
11.3083	141.526	-0.335112
11.3100	141.542	-0.338105
11.3117	141.558	-0.340660
11.3133	141.574	-0.343612
11.3150	141.589	-0.346709
11.3167	141.606	-0.349990
11.3183	141.621	-0.353516
11.3200	141.637	-0.357021
11.3217	141.653	-0.360587
11.3233	141.669	-0.364181
11.3250	141.685	-0.368105
11.3267	141.700	-0.371902
11.3283	141.715	-0.376090
11.3300	141.730	-0.380193
11.3317	141.746	-0.384274
11.3333	141.762	-0.388770
11.3350	141.778	-0.393194
11.3367	141.793	-0.398272
11.3383	141.809	-0.403034
11.3400	141.824	-0.408216
11.3417	141.839	-0.413732
11.3433	141.854	-0.419643
11.3450	141.869	-0.425578
11.3467	141.885	-0.431744
11.3483	141.899	-0.438191
11.3500	141.915	-0.444893
11.3517	141.930	-0.451482
11.3533	141.944	-0.458477
11.3550	141.959	-0.465820
11.3567	141.974	-0.473579
11.3583	141.989	-0.481628
11.3600	142.003	-0.490128
11.3617	142.018	-0.499012
11.3633	142.032	-0.508283
11.3650	142.048	-0.517925
11.3667	142.061	-0.528137
11.3683	142.075	-0.538772
11.3700	142.089	-0.549333
11.3717	142.103	-0.560322
11.3733	142.117	-0.571932
11.3750	142.131	-0.583683
11.3767	142.145	-0.595705
11.3783	142.157	-0.607840
11.3800	142.172	-0.620695
11.3817	142.185	-0.633799
11.3833	142.198	-0.647274
11.3850	142.211	-0.661026
11.3867	142.224	-0.675150
11.3883	142.238	-0.689459
11.3900	142.251	-0.704069
11.3917	142.263	-0.719148
11.3933	142.275	-0.734382
11.3950	142.288	-0.749592
11.3967	142.300	-0.764259
11.3983	142.312	-0.779825
11.4000	142.325	-0.795458
11.4017	142.336	-0.811151
11.4033	142.348	-0.826998
11.4050	142.360	-0.843094
11.4067	142.371	-0.859041
11.4083	142.383	-0.875328
11.4100	142.394	-0.891808
11.4117	142.406	-0.908331
11.4133	142.417	-0.924539
11.4150	142.428	-0.940674
11.4167	142.439	-0.957120
11.4183	142.450	-0.973408
11.4200	142.461	-0.989668
11.4217	142.472	-1.00608
11.4233	142.483	-1.02276
11.4250	142.494	-1.03931
11.4267	142.504	-1.05554
11.4283	142.514	-1.07201
11.4300	142.524	-1.08829
11.4317	142.535	-1.10414
11.4333	142.545	-1.11985
11.4350	142.555	-1.13532
11.4367	142.566	-1.15064
11.4383	142.575	-1.16562
11.4400	142.586	-1.18055
11.4417	142.596	-1.19571
11.4433	142.607	-1.21040
11.4450	142.616	-1.22505
11.4467	142.627	-1.23966
11.4483	142.636	-1.25439
11.4500	142.645	-1.26891
11.4517	142.656	-1.28369
11.4533	142.665	-1.29817
11.4550	142.675	-1.31263
11.4567	142.686	-1.32633
11.4583	142.696	-1.34066
11.4600	142.705	-1.35479
11.4617	142.714	-1.36885
11.4633	142.724	-1.38334
11.4650	142.734	-1.39786
11.4667	142.743	-1.41239
11.4683	142.753	-1.42697
11.4700	142.764	-1.44173
11.4717	142.773	-1.45635
11.4733	142.782	-1.47095
11.4750	142.792	-1.48473
11.4767	142.802	-1.49892
11.4783	142.811	-1.51274
11.4800	142.821	-1.52652
11.4817	142.830	-1.54089
11.4833	142.839	-1.55523
11.4850	142.849	-1.56952
11.4867	142.858	-1.58388
11.4883	142.868	-1.59816
11.4900	142.877	-1.61188
11.4917	142.887	-1.62540
11.4933	142.896	-1.63872
11.4950	142.906	-1.65162
11.4967	142.916	-1.66461
11.4983	142.926	-1.67781
11.5000	142.935	-1.69105
11.5017	142.945	-1.70433
11.5033	142.954	-1.71735
11.5050	142.964	-1.73105
11.5067	142.973	-1.74483
11.5083	142.983	-1.75835
11.5100	142.992	-1.77234
11.5117	143.001	-1.78616
11.5133	143.010	-1.80003
11.5150	143.021	-1.81420
11.5167	143.029	-1.82866
11.5183	143.040	-1.84310
11.5200	143.050	-1.85745
11.5217	143.059	-1.87126
11.5233	143.068	-1.88497
11.5250	143.077	-1.89836
11.5267	143.088	-1.91206
11.5283	143.097	-1.92555
11.5300	143.106	-1.93864
11.5317	143.116	-1.95183
11.5333	143.125	-1.96498
11.5350	143.135	-1.97809
11.5367	143.144	-1.99146
11.5383	143.154	-2.00479
11.5400	143.164	-2.01823
11.5417	143.173	-2.03152
11.5433	143.182	-2.04435
11.5450	143.192	-2.05780
11.5467	143.202	-2.07089
11.5483	143.211	-2.08381
11.5500	143.221	-2.09662
11.5517	143.230	-2.10922
11.5533	143.240	-2.12196
11.5550	143.249	-2.13455
11.5567	143.258	-2.14736
11.5583	143.267	-2.16027
11.5600	143.277	-2.17321
11.5617	143.287	-2.18617
11.5633	143.297	-2.19917
11.5650	143.307	-2.21227
11.5667	143.317	-2.22578
11.5683	143.325	-2.23890
11.5700	143.336	-2.25180
11.5717	143.344	-2.26482
11.5733	143.355	-2.27771
11.5750	143.365	-2.29086
11.5767	143.374	-2.30399
11.5783	143.384	-2.31658
11.5800	143.394	-2.32940
11.5817	143.403	-2.34230
11.5833	143.413	-2.35549
11.5850	143.423	-2.36870
11.5867	143.431	-2.38184
11.5883	143.442	-2.39502
11.5900	143.451	-2.40818
11.5917	143.460	-2.42173
11.5933	143.469	-2.43547
11.5950	143.479	-2.44916
11.5967	143.490	-2.46276
11.5983	143.500	-2.47615
11.6000	143.508	-2.48993
11.6017	143.519	-2.50410
11.6033	143.528	-2.51823
11.6050	143.537	-2.53215
11.6067	143.548	-2.54665
11.6083	143.556	-2.56075
11.6100	143.566	-2.57541
11.6117	143.576	-2.59026
11.6133	143.586	-2.60495
11.6150	143.594	-2.61928
11.6167	143.604	-2.63371
11.6183	143.613	-2.64845
11.6200	143.623	-2.66311
11.6217	143.632	-2.67771
11.6233	143.642	-2.69166
11.6250	143.652	-2.70581
11.6267	143.660	-2.71998
11.6283	143.670	-2.73401
11.6300	143.680	-2.74794
11.6317	143.690	-2.76153
11.6333	143.699	-2.77516
11.6350	143.707	-2.78847
11.6367	143.717	-2.80189
11.6383	143.726	-2.81520
11.6400	143.736	-2.82873
11.6417	143.746	-2.84220
11.6433	143.755	-2.85562
11.6450	143.765	-2.86898
11.6467	143.774	-2.88221
11.6483	143.783	-2.89571
11.6500	143.793	-2.90907
11.6517	143.802	-2.92233
11.6533	143.812	-2.93524
11.6550	143.821	-2.94816
11.6567	143.830	-2.96088
11.6583	143.839	-2.97349
11.6600	143.849	-2.98609
11.6617	143.858	-2.99872
11.6633	143.868	-3.01087
11.6650	143.877	-3.02338
11.6667	143.887	-3.03569
11.6683	143.897	-3.04857
11.6700	143.906	-3.06185
11.6717	143.916	-3.07520
11.6733	143.926	-3.08873
11.6750	143.935	-3.10247
11.6767	143.945	-3.11596
11.6783	143.954	-3.12928
11.6800	143.965	-3.14284
11.6817	143.974	-3.15566
11.6833	143.984	-3.16833
11.6850	143.993	-3.18027
11.6867	144.002	-3.19194
11.6883	144.012	-3.20363
11.6900	144.022	-3.21537
11.6917	144.031	-3.22633
11.6933	144.041	-3.23764
11.6950	144.051	-3.24898
11.6967	144.061	-3.26016
11.6983	144.071	-3.27136
11.7000	144.080	-3.28281
11.7017	144.091	-3.29427
11.7033	144.100	-3.30559
11.7050	144.111	-3.31706
11.7067	144.120	-3.32877
11.7083	144.130	-3.34053
11.7100	144.140	-3.35191
11.7117	144.150	-3.36349
11.7133	144.160	-3.37440
11.7150	144.170	-3.38551
11.7167	144.180	-3.39636
11.7183	144.190	-3.40690
11.7200	144.200	-3.41706
11.7217	144.211	-3.42679
11.7233	144.221	-3.43574
11.7250	144.232	-3.44449
11.7267	144.241	-3.45346
11.7283	144.252	-3.46264
11.7300	144.262	-3.47200
11.7317	144.273	-3.48145
11.7333	144.283	-3.49133
11.7350	144.294	-3.50192
11.7367	144.304	-3.51234
11.7383	144.314	-3.52302
11.7400	144.325	-3.53398
11.7417	144.336	-3.54453
11.7433	144.347	-3.55451
11.7450	144.356	-3.56450
11.7467	144.367	-3.57386
11.7483	144.378	-3.58328
11.7500	144.388	-3.59263
11.7517	144.398	-3.60225
11.7533	144.409	-3.61251
11.7550	144.421	-3.62292
11.7567	144.431	-3.63347
11.7583	144.442	-3.64435
11.7600	144.453	-3.65546
11.7617	144.464	-3.66636
11.7633	144.474	-3.67724
11.7650	144.485	-3.68776
11.7667	144.495	-3.69827
11.7683	144.506	-3.70794
11.7700	144.517	-3.71679
11.7717	144.528	-3.72510
11.7733	144.538	-3.73348
11.7750	144.551	-3.74165
11.7767	144.561	-3.74976
11.7783	144.572	-3.75768
11.7800	144.583	-3.76588
11.7817	144.595	-3.77412
11.7833	144.605	-3.78288
11.7850	144.617	-3.79171
11.7867	144.627	-3.79972
11.7883	144.640	-3.80702
11.7900	144.650	-3.81294
11.7917	144.661	-3.81770
11.7933	144.672	-3.82168
11.7950	144.684	-3.82458
11.7967	144.697	-3.82678
11.7983	144.708	-3.82912
11.8000	144.720	-3.83116
11.8017	144.732	-3.83363
11.8033	144.744	-3.83602
11.8050	144.756	-3.83843
11.8067	144.768	-3.84115
11.8083	144.782	-3.84404
11.8100	144.794	-3.84706
11.8117	144.806	-3.85009
11.8133	144.819	-3.85286
11.8150	144.831	-3.85520
11.8167	144.844	-3.85738
11.8183	144.857	-3.85882
11.8200	144.870	-3.85963
11.8217	144.883	-3.85986
11.8233	144.896	-3.85919
11.8250	144.910	-3.85837
11.8267	144.924	-3.85699
11.8283	144.937	-3.85546
11.8300	144.950	-3.85360
11.8317	144.964	-3.85082
11.8333	144.978	-3.84748
11.8350	144.992	-3.84318
11.8367	145.006	-3.83731
11.8383	145.020	-3.82980
11.8400	145.035	-3.82110
11.8417	145.050	-3.81119
11.8433	145.065	-3.80066
11.8450	145.081	-3.78940
11.8467	145.097	-3.77796
11.8483	145.112	-3.76635
11.8500	145.128	-3.75461
11.8517	145.144	-3.74310
11.8533	145.160	-3.73269
11.8550	145.176	-3.72231
11.8567	145.193	-3.71237
11.8583	145.210	-3.70301
11.8600	145.227	-3.69413
11.8617	145.244	-3.68581
11.8633	145.262	-3.67795
11.8650	145.278	-3.67107
11.8667	145.297	-3.66459
11.8683	145.314	-3.65834
11.8700	145.330	-3.65189
11.8717	145.348	-3.64534
11.8733	145.365	-3.63899
11.8750	145.383	-3.63229
11.8767	145.401	-3.62531
11.8783	145.418	-3.61817
11.8800	145.437	-3.61066
11.8817	145.455	-3.60314
11.8833	145.472	-3.59588
11.8850	145.491	-3.58867
11.8867	145.510	-3.58188
11.8883	145.528	-3.57551
11.8900	145.546	-3.56934
11.8917	145.564	-3.56377
11.8933	145.582	-3.55836
11.8950	145.602	-3.55321
11.8967	145.619	-3.54860
11.8983	145.638	-3.54382
11.9000	145.656	-3.53904
11.9017	145.674	-3.53409
11.9033	145.693	-3.52911
11.9050	145.711	-3.52395
11.9067	145.729	-3.51877
11.9083	145.748	-3.51321
11.9100	145.767	-3.50782
11.9117	145.785	-3.50182
11.9133	145.804	-3.49576
11.9150	145.823	-3.49001
11.9167	145.842	-3.48398
11.9183	145.860	-3.47830
11.9200	145.879	-3.47219
11.9217	145.898	-3.46620
11.9233	145.916	-3.46035
11.9250	145.936	-3.45462
11.9267	145.954	-3.44869
11.9283	145.973	-3.44296
11.9300	145.992	-3.43677
11.9317	146.011	-3.43021
11.9333	146.030	-3.42330
11.9350	146.048	-3.41594
11.9367	146.068	-3.40828
11.9383	146.087	-3.40009
11.9400	146.107	-3.39107
11.9417	146.126	-3.38174
11.9433	146.146	-3.37152
11.9450	146.165	-3.36088
11.9467	146.185	-3.34960
11.9483	146.205	-3.33764
11.9500	146.225	-3.32483
11.9517	146.245	-3.31091
11.9533	146.264	-3.29658
11.9550	146.285	-3.28167
11.9567	146.306	-3.26623
11.9583	146.325	-3.25049
11.9600	146.346	-3.23373
11.9617	146.366	-3.21650
11.9633	146.388	-3.19867
11.9650	146.408	-3.18036
11.9667	146.429	-3.16095
11.9683	146.451	-3.14065
11.9700	146.472	-3.11966
11.9717	146.494	-3.09788
11.9733	146.517	-3.07556
11.9750	146.538	-3.05290
11.9767	146.561	-3.03001
11.9783	146.584	-3.00626
11.9800	146.606	-2.98226
11.9817	146.628	-2.95769
11.9833	146.651	-2.93275
11.9850	146.675	-2.90705
11.9867	146.698	-2.88016
11.9883	146.723	-2.85303
11.9900	146.747	-2.82498
11.9917	146.771	-2.79657
11.9933	146.796	-2.76760
11.9950	146.821	-2.73835
11.9967	146.846	-2.70882
11.9983	146.871	-2.67926
12.0000	146.896	-2.64961
12.0017	146.922	-2.62028
12.0033	146.948	-2.59086
12.0050	146.974	-2.56174
12.0067	147.000	-2.53272
12.0083	147.026	-2.50353
12.0100	147.052	-2.47489
12.0117	147.078	-2.44571
12.0133	147.105	-2.41705
12.0150	147.132	-2.38864
12.0167	147.160	-2.36024
12.0183	147.187	-2.33222
12.0200	147.215	-2.30469
12.0217	147.241	-2.27767
12.0233	147.268	-2.25098
12.0250	147.296	-2.22459
12.0267	147.324	-2.19873
12.0283	147.352	-2.17333
12.0300	147.379	-2.14835
12.0317	147.407	-2.12392
12.0333	147.436	-2.10004
12.0350	147.463	-2.07658
12.0367	147.491	-2.05336
12.0383	147.519	-2.03039
12.0400	147.547	-2.00733
12.0417	147.574	-1.98441
12.0433	147.603	-1.96163
12.0450	147.631	-1.93891
12.0467	147.657	-1.91613
12.0483	147.687	-1.89389
12.0500	147.716	-1.87087
12.0517	147.744	-1.84789
12.0533	147.772	-1.82505
12.0550	147.800	-1.80259
12.0567	147.828	-1.78008
12.0583	147.856	-1.75744
12.0600	147.885	-1.73538
12.0617	147.913	-1.71350
12.0633	147.941	-1.69250
12.0650	147.968	-1.67162
12.0667	147.997	-1.65173
12.0683	148.024	-1.63233
12.0700	148.052	-1.61292
12.0717	148.081	-1.59463
12.0733	148.109	-1.57670
12.0750	148.137	-1.55930
12.0767	148.165	-1.54212
12.0783	148.193	-1.52546
12.0800	148.222	-1.50911
12.0817	148.248	-1.49360
12.0833	148.276	-1.47818
12.0850	148.303	-1.46325
12.0867	148.330	-1.44882
12.0883	148.357	-1.43444
12.0900	148.385	-1.42013
12.0917	148.412	-1.40640
12.0933	148.438	-1.39299
12.0950	148.465	-1.37955
12.0967	148.492	-1.36638
12.0983	148.518	-1.35334
12.1000	148.545	-1.34064
12.1017	148.572	-1.32827
12.1033	148.598	-1.31612
12.1050	148.624	-1.30433
12.1067	148.651	-1.29294
12.1083	148.678	-1.28097
12.1100	148.704	-1.26998
12.1117	148.730	-1.25865
12.1133	148.755	-1.24749
12.1150	148.781	-1.23664
12.1167	148.806	-1.22589
12.1183	148.832	-1.21498
12.1200	148.858	-1.20465
12.1217	148.883	-1.19416
12.1233	148.908	-1.18371
12.1250	148.934	-1.17335
12.1267	148.959	-1.16332
12.1283	148.984	-1.15375
12.1300	149.009	-1.14385
12.1317	149.034	-1.13414
12.1333	149.059	-1.12481
12.1350	149.082	-1.11571
12.1367	149.107	-1.10679
12.1383	149.132	-1.09784
12.1400	149.156	-1.08864
12.1417	149.181	-1.07975
12.1433	149.205	-1.07089
12.1450	149.229	-1.06206
12.1467	149.253	-1.05336
12.1483	149.277	-1.04466
12.1500	149.301	-1.03617
12.1517	149.325	-1.02793
12.1533	149.348	-1.02000
12.1550	149.372	-1.01198
12.1567	149.395	-1.00421
12.1583	149.419	-0.996232
12.1600	149.442	-0.988770
12.1617	149.466	-0.981227
12.1633	149.489	-0.973552
12.1650	149.512	-0.965804
12.1667	149.535	-0.958199
12.1683	149.559	-0.950701
12.1700	149.582	-0.943190
12.1717	149.604	-0.935841
12.1733	149.627	-0.928673
12.1750	149.650	-0.921666
12.1767	149.672	-0.914501
12.1783	149.695	-0.907586
12.1800	149.718	-0.900845
12.1817	149.740	-0.894151
12.1833	149.762	-0.887497
12.1850	149.784	-0.880923
12.1867	149.808	-0.874362
12.1883	149.830	-0.867697
12.1900	149.852	-0.860918
12.1917	149.874	-0.854689
12.1933	149.896	-0.848484
12.1950	149.919	-0.842233
12.1967	149.940	-0.835916
12.1983	149.962	-0.830199
12.2000	149.984	-0.824294
12.2017	150.005	-0.818653
12.2033	150.027	-0.813037
12.2050	150.049	-0.807416
12.2067	150.070	-0.801844
12.2083	150.092	-0.795904
12.2100	150.114	-0.790172
12.2117	150.135	-0.784760
12.2133	150.156	-0.779093
12.2150	150.178	-0.773680
12.2167	150.200	-0.768548
12.2183	150.220	-0.763305
12.2200	150.242	-0.758116
12.2217	150.262	-0.753041
12.2233	150.284	-0.747923
12.2250	150.306	-0.742890
12.2267	150.326	-0.737774
12.2283	150.347	-0.732551
12.2300	150.369	-0.727432
12.2317	150.389	-0.722569
12.2333	150.409	-0.718135
12.2350	150.431	-0.713537
12.2367	150.451	-0.708967
12.2383	150.471	-0.704433
12.2400	150.492	-0.699993
12.2417	150.512	-0.695421
12.2433	150.532	-0.690940
12.2450	150.554	-0.686728
12.2467	150.574	-0.682308
12.2483	150.593	-0.677790
12.2500	150.614	-0.673415
12.2517	150.635	-0.669436
12.2533	150.656	-0.665210
12.2550	150.676	-0.661013
12.2567	150.696	-0.657093
12.2583	150.716	-0.652984
12.2600	150.737	-0.648630
12.2617	150.757	-0.644433
12.2633	150.777	-0.640345
12.2650	150.796	-0.636187
12.2667	150.817	-0.632377
12.2683	150.836	-0.628543
12.2700	150.856	-0.624923
12.2717	150.876	-0.621273
12.2733	150.895	-0.617823
12.2750	150.915	-0.614507
12.2767	150.935	-0.611256
12.2783	150.955	-0.607563
12.2800	150.974	-0.604057
12.2817	150.995	-0.600449
12.2833	151.014	-0.596851
12.2850	151.034	-0.593512
12.2867	151.053	-0.590090
12.2883	151.073	-0.586602
12.2900	151.092	-0.583643
12.2917	151.111	-0.580469
12.2933	151.131	-0.577666
12.2950	151.150	-0.574969
12.2967	151.169	-0.571909
12.2983	151.189	-0.568679
12.3000	151.208	-0.565656
12.3017	151.228	-0.562598
12.3033	151.247	-0.559361
12.3050	151.265	-0.556137
12.3067	151.285	-0.552913
12.3083	151.305	-0.549872
12.3100	151.323	-0.546874
12.3117	151.343	-0.543932
12.3133	151.362	-0.541154
12.3150	151.381	-0.538532
12.3167	151.400	-0.536150
12.3183	151.419	-0.533590
12.3200	151.438	-0.531068
12.3217	151.457	-0.528242
12.3233	151.475	-0.525446
12.3250	151.495	-0.522483
12.3267	151.514	-0.519447
12.3283	151.533	-0.516644
12.3300	151.552	-0.513956
12.3317	151.571	-0.511271
12.3333	151.589	-0.509192
12.3350	151.609	-0.507362
12.3367	151.627	-0.505261
12.3383	151.645	-0.503175
12.3400	151.664	-0.501209
12.3417	151.683	-0.498955
12.3433	151.702	-0.496525
12.3450	151.720	-0.493886
12.3467	151.739	-0.491281
12.3483	151.758	-0.488704
12.3500	151.777	-0.486073
12.3517	151.794	-0.483552
12.3533	151.813	-0.481160
12.3550	151.830	-0.479250
12.3567	151.850	-0.477324
12.3583	151.868	-0.475692
12.3600	151.887	-0.474043
12.3617	151.905	-0.472214
12.3633	151.924	-0.470167
12.3650	151.941	-0.467923
12.3667	151.960	-0.466066
12.3683	151.979	-0.464132
12.3700	151.998	-0.462246
12.3717	152.015	-0.460326
12.3733	152.033	-0.458362
12.3750	152.052	-0.456665
12.3767	152.070	-0.454976
12.3783	152.088	-0.453530
12.3800	152.106	-0.451744
12.3817	152.124	-0.449706
12.3833	152.143	-0.447684
12.3850	152.162	-0.445952
12.3867	152.180	-0.443944
12.3883	152.198	-0.442133
12.3900	152.215	-0.440108
12.3917	152.234	-0.438234
12.3933	152.252	-0.436586
12.3950	152.270	-0.434971
12.3967	152.288	-0.433404
12.3983	152.306	-0.432112
12.4000	152.325	-0.430537
12.4017	152.342	-0.428698
12.4033	152.360	-0.427312
12.4050	152.378	-0.425959
12.4067	152.396	-0.424371
12.4083	152.414	-0.422795
12.4100	152.432	-0.421262
12.4117	152.450	-0.419656
12.4133	152.467	-0.418538
12.4150	152.485	-0.417297
12.4167	152.503	-0.415926
12.4183	152.521	-0.414598
12.4200	152.539	-0.413176
12.4217	152.557	-0.411615
12.4233	152.575	-0.410477
12.4250	152.593	-0.409151
12.4267	152.610	-0.407984
12.4283	152.628	-0.406207
12.4300	152.646	-0.404580
12.4317	152.664	-0.403369
12.4333	152.682	-0.402391
12.4350	152.700	-0.400754
12.4367	152.717	-0.399608
12.4383	152.734	-0.398183
12.4400	152.753	-0.396804
12.4417	152.771	-0.395692
12.4433	152.788	-0.394251
12.4450	152.805	-0.393142
12.4467	152.823	-0.391716
12.4483	152.842	-0.390248
12.4500	152.858	-0.389137
12.4517	152.876	-0.388280
12.4533	152.893	-0.387016
12.4550	152.910	-0.386079
12.4567	152.928	-0.385279
12.4583	152.946	-0.384687
12.4600	152.964	-0.383728
12.4617	152.981	-0.382423
12.4633	152.999	-0.381187
12.4650	153.017	-0.380065
12.4667	153.034	-0.379138
12.4683	153.052	-0.378166
12.4700	153.069	-0.377178
12.4717	153.086	-0.376251
12.4733	153.104	-0.375037
12.4750	153.121	-0.374320
12.4767	153.139	-0.373445
12.4783	153.156	-0.372416
12.4800	153.174	-0.371527
12.4817	153.191	-0.370510
12.4833	153.209	-0.369479
12.4850	153.226	-0.368346
12.4867	153.243	-0.367294
12.4883	153.260	-0.366335
12.4900	153.278	-0.365464
12.4917	153.296	-0.364354
12.4933	153.313	-0.363795
12.4950	153.331	-0.362919
12.4967	153.348	-0.362177
12.4983	153.365	-0.361600
12.5000	153.384	-0.360963
12.5017	153.400	-0.360397
12.5033	153.418	-0.359531
12.5050	153.435	-0.358555
12.5067	153.452	-0.357314
12.5083	153.469	-0.356342
12.5100	153.486	-0.355572
12.5117	153.504	-0.354832
12.5133	153.521	-0.354074
12.5150	153.538	-0.353038
12.5167	153.556	-0.352450
12.5183	153.573	-0.351526
12.5200	153.590	-0.350932
12.5217	153.608	-0.350046
12.5233	153.624	-0.349396
12.5250	153.642	-0.348910
12.5267	153.659	-0.348347
12.5283	153.677	-0.347814
12.5300	153.693	-0.347287
12.5317	153.711	-0.347008
12.5333	153.728	-0.346173
12.5350	153.746	-0.345551
12.5367	153.764	-0.345112
12.5383	153.781	-0.344410
12.5400	153.797	-0.343548
12.5417	153.814	-0.342745
12.5433	153.832	-0.342230
12.5450	153.849	-0.341461
12.5467	153.866	-0.340722
12.5483	153.884	-0.340176
12.5500	153.900	-0.339485
12.5517	153.917	-0.338970
12.5533	153.934	-0.338207
12.5550	153.952	-0.337576
12.5567	153.968	-0.336983
12.5583	153.986	-0.336758
12.5600	154.002	-0.336608
12.5617	154.020	-0.335964
12.5633	154.037	-0.335304
12.5650	154.054	-0.335030
12.5667	154.071	-0.334663
12.5683	154.088	-0.334074
12.5700	154.105	-0.333674
12.5717	154.122	-0.333161
12.5733	154.139	-0.332870
12.5750	154.157	-0.332301
12.5767	154.174	-0.331964
12.5783	154.191	-0.331918
12.5800	154.208	-0.331659
12.5817	154.225	-0.330915
12.5833	154.243	-0.330082
12.5850	154.259	-0.329313
12.5867	154.277	-0.328524
12.5883	154.294	-0.327471
12.5900	154.311	-0.326866
12.5917	154.327	-0.326578
12.5933	154.344	-0.326493
12.5950	154.361	-0.325943
12.5967	154.379	-0.325736
12.5983	154.396	-0.325786
12.6000	154.412	-0.325829
12.6017	154.430	-0.325442
12.6033	154.448	-0.324621
12.6050	154.463	-0.323913
12.6067	154.481	-0.323228
12.6083	154.498	-0.322751
12.6100	154.515	-0.322288
12.6117	154.532	-0.322128
12.6133	154.548	-0.321693
12.6150	154.566	-0.321198
12.6167	154.583	-0.321040
12.6183	154.599	-0.321150
12.6200	154.616	-0.321148
12.6217	154.633	-0.320899
12.6233	154.651	-0.320258
12.6250	154.667	-0.319831
12.6267	154.685	-0.319533
12.6283	154.703	-0.319127
12.6300	154.719	-0.318852
12.6317	154.735	-0.318542
12.6333	154.752	-0.318194
12.6350	154.769	-0.317869
12.6367	154.786	-0.317535
12.6383	154.803	-0.317248
12.6400	154.820	-0.317175
12.6417	154.837	-0.316962
12.6433	154.854	-0.316729
12.6450	154.871	-0.316429
12.6467	154.889	-0.316027
12.6483	154.905	-0.315523
12.6500	154.921	-0.315112
12.6517	154.939	-0.315040
12.6533	154.956	-0.314951
12.6550	154.973	-0.314678
12.6567	154.989	-0.314345
12.6583	155.006	-0.313993
12.6600	155.023	-0.313744
12.6617	155.039	-0.313491
12.6633	155.056	-0.313253
12.6650	155.074	-0.313060
12.6667	155.090	-0.312877
12.6683	155.107	-0.312646
12.6700	155.124	-0.312547
12.6717	155.141	-0.312466
12.6733	155.159	-0.312373
12.6750	155.174	-0.312286
12.6767	155.192	-0.312100
12.6783	155.208	-0.311863
12.6800	155.225	-0.311674
12.6817	155.243	-0.311452
12.6833	155.260	-0.311117
12.6850	155.277	-0.310616
12.6867	155.293	-0.310212
12.6883	155.310	-0.309790
12.6900	155.327	-0.309434
12.6917	155.343	-0.309301
12.6933	155.360	-0.309192
12.6950	155.377	-0.309151
12.6967	155.394	-0.309131
12.6983	155.410	-0.309190
12.7000	155.427	-0.309238
12.7017	155.444	-0.309232
12.7033	155.462	-0.309179
12.7050	155.478	-0.309069
12.7067	155.494	-0.308819
12.7083	155.512	-0.308558
12.7100	155.529	-0.308342
12.7117	155.546	-0.308116
12.7133	155.563	-0.307883
12.7150	155.580	-0.307696
12.7167	155.596	-0.307571
12.7183	155.613	-0.307477
12.7200	155.630	-0.307424
12.7217	155.647	-0.307330
12.7233	155.663	-0.307244
12.7250	155.681	-0.307113
12.7267	155.697	-0.307017
12.7283	155.714	-0.306856
12.7300	155.730	-0.306746
12.7317	155.747	-0.306591
12.7333	155.764	-0.306446
12.7350	155.781	-0.306332
12.7367	155.797	-0.306214
12.7383	155.815	-0.306122
12.7400	155.831	-0.306026
12.7417	155.848	-0.305929
12.7433	155.866	-0.305798
12.7450	155.882	-0.305732
12.7467	155.898	-0.305657
12.7483	155.916	-0.305538
12.7500	155.933	-0.305440
12.7517	155.950	-0.305308
12.7533	155.966	-0.305189
12.7550	155.983	-0.305097
12.7567	156.000	-0.305002
12.7583	156.016	-0.304933
12.7600	156.033	-0.304894
12.7617	156.050	-0.304865
12.7633	156.067	-0.304832
12.7650	156.083	-0.304799
12.7667	156.100	-0.304752
12.7683	156.116	-0.304621
12.7700	156.133	-0.304455
12.7717	156.150	-0.304281
12.7733	156.167	-0.304040
12.7750	156.185	-0.303762
12.7767	156.201	-0.303596
12.7783	156.218	-0.303492
12.7800	156.234	-0.303447
12.7817	156.251	-0.303411
12.7833	156.268	-0.303389
12.7850	156.285	-0.303356
12.7867	156.301	-0.303319
12.7883	156.318	-0.303275
12.7900	156.335	-0.303243
12.7917	156.351	-0.303216
12.7933	156.369	-0.303194
12.7950	156.386	-0.303184
12.7967	156.403	-0.303146
12.7983	156.418	-0.303161
12.8000	156.435	-0.303169
12.8017	156.453	-0.303185
12.8033	156.469	-0.303194
12.8050	156.485	-0.303201
12.8067	156.501	-0.303200
12.8083	156.519	-0.303198
12.8100	156.536	-0.303196
12.8117	156.552	-0.303195
12.8133	156.569	-0.303193
12.8150	156.586	-0.303192
12.8167	156.603	-0.303190
12.8183	156.620	-0.303188
12.8200	156.637	-0.303187
12.8217	156.653	-0.303180
12.8233	156.670	-0.303186
12.8250	156.687	-0.303192
12.8267	156.703	-0.303200
12.8283	156.721	-0.303213
12.8300	156.738	-0.303222
12.8317	156.754	-0.303227
12.8333	156.771	-0.303225
12.8350	156.787	-0.303222
12.8367	156.804	-0.303219
12.8383	156.821	-0.303218
12.8400	156.839	-0.303216
12.8417	156.855	-0.303217
12.8433	156.871	-0.303216
12.8450	156.888	-0.303219
12.8467	156.905	-0.303225
12.8483	156.922	-0.303239
12.8500	156.938	-0.303260
12.8517	156.955	-0.303283
12.8533	156.971	-0.303301
12.8550	156.988	-0.303307
12.8567	157.005	-0.303314
12.8583	157.022	-0.303317
12.8600	157.040	-0.303321
12.8617	157.055	-0.303327
12.8633	157.072	-0.303335
12.8650	157.090	-0.303341
12.8667	157.106	-0.303344
12.8683	157.122	-0.303348
12.8700	157.140	-0.303364
12.8717	157.156	-0.303399
12.8733	157.173	-0.303418
12.8750	157.189	-0.303440
12.8767	157.205	-0.303456
12.8783	157.223	-0.303468
12.8800	157.240	-0.303476
12.8817	157.255	-0.303484
12.8833	157.274	-0.303493
12.8850	157.289	-0.303499
12.8867	157.307	-0.303501
12.8883	157.323	-0.303505
12.8900	157.340	-0.303510
12.8917	157.356	-0.303516
12.8933	157.372	-0.303527
12.8950	157.390	-0.303543
12.8967	157.406	-0.303568
12.8983	157.423	-0.303581
12.9000	157.440	-0.303592
12.9017	157.456	-0.303610
12.9033	157.473	-0.303634
12.9050	157.490	-0.303656
12.9067	157.506	-0.303668
12.9083	157.523	-0.303681
12.9100	157.539	-0.303698
12.9117	157.557	-0.303727
12.9133	157.574	-0.303764
12.9150	157.590	-0.303821
12.9167	157.607	-0.303870
12.9183	157.623	-0.303902
12.9200	157.640	-0.303922
12.9217	157.657	-0.303936
12.9233	157.673	-0.303950
12.9250	157.690	-0.303963
12.9267	157.706	-0.303976
12.9283	157.723	-0.303994
12.9300	157.740	-0.304015
12.9317	157.757	-0.304042
12.9333	157.773	-0.304076
12.9350	157.791	-0.304131
12.9367	157.806	-0.304205
12.9383	157.824	-0.304258
12.9400	157.840	-0.304304
12.9417	157.857	
12.9433	157.874	
12.9450	157.890	
12.9467	157.907	
12.9483	157.924	
12.9500	157.940	
12.9517	157.957	
12.9533	157.974	
12.9550	157.990	
12.9567	158.008	
12.9583	158.024	
12.9600	158.041	
12.9617	158.057	
12.9633	158.075	
12.9650	158.091	
12.9667	158.109	
12.9683	158.124	
12.9700	158.140	
12.9717	158.157	
12.9733	158.175	
12.9750	158.190	
12.9767	158.207	
12.9783	158.224	
12.9800	158.241	
12.9817	158.258	
12.9833	158.274	
12.9850	158.292	
12.9867	158.308	
12.9883	158.324	
12.9900	158.341	
12.9917		
12.9933		
12.9950		
12.9967		
12.9983		

