Filename	4-methyl-2-nitrophenol
Instrument name	DSC2A-00807 (172.23.165.2)
Operator	Petroc Shelley
rundate	5/3/2019
Sample name	4-methyl-2-nitrophenol
proceduresegments	Ramp 10 °C/min to 140.00 °C
[step]
Ramp 10 °C/min to 140.00 °C
Time	Temperature	Heat Flow (Normalized)
min	°C	W/g
0.00000		
1.66667e-3		
3.33333e-3		
5.00000e-3		
6.66667e-3		
8.33333e-3	30.205	
0.0100000	30.207	
0.0116667	30.209	
0.0133333	30.212	
0.0150000	30.215	
0.0166667	30.218	
0.0183333	30.219	
0.0200000	30.221	
0.0216667	30.224	
0.0233333	30.227	
0.0250000	30.229	
0.0266667	30.232	
0.0283333	30.234	
0.0300000	30.236	
0.0316667	30.240	
0.0333333	30.242	
0.0350000	30.244	
0.0366667	30.248	
0.0383333	30.250	
0.0400000	30.253	
0.0416667	30.256	
0.0433333	30.260	
0.0450000	30.262	
0.0466667	30.266	
0.0483333	30.269	
0.0500000	30.272	
0.0516667	30.275	
0.0533333	30.279	
0.0550000	30.283	
0.0566667	30.288	
0.0583333	30.290	-0.695289
0.0600000	30.294	-0.695276
0.0616667	30.300	-0.695188
0.0633333	30.303	-0.694843
0.0650000	30.307	-0.694175
0.0666667	30.311	-0.693181
0.0683333	30.315	-0.692045
0.0700000	30.322	-0.690633
0.0716667	30.326	-0.689122
0.0733333	30.332	-0.687346
0.0750000	30.338	-0.685695
0.0766667	30.344	-0.684345
0.0783333	30.350	-0.683217
0.0800000	30.356	-0.682399
0.0816667	30.362	-0.681786
0.0833333	30.369	-0.681244
0.0850000	30.375	-0.680884
0.0866667	30.382	-0.680740
0.0883333	30.389	-0.680633
0.0900000	30.396	-0.680602
0.0916667	30.403	-0.680498
0.0933333	30.411	-0.680384
0.0950000	30.420	-0.680360
0.0966667	30.427	-0.680355
0.0983333	30.435	-0.680379
0.100000	30.443	-0.680427
0.101667	30.452	-0.680596
0.103333	30.461	-0.680705
0.105000	30.468	-0.680742
0.106667	30.478	-0.680803
0.108333	30.488	-0.680881
0.110000	30.497	-0.681003
0.111667	30.506	-0.681201
0.113333	30.517	-0.681651
0.115000	30.526	-0.682418
0.116667	30.536	-0.683418
0.118333	30.545	-0.684806
0.120000	30.556	-0.686771
0.121667	30.566	-0.688952
0.123333	30.576	-0.691438
0.125000	30.587	-0.693709
0.126667	30.597	-0.695875
0.128333	30.609	-0.698274
0.130000	30.620	-0.701063
0.131667	30.631	-0.703924
0.133333	30.642	-0.706630
0.135000	30.653	-0.708566
0.136667	30.665	-0.710457
0.138333	30.676	-0.712689
0.140000	30.687	-0.714432
0.141667	30.700	-0.716674
0.143333	30.710	-0.717586
0.145000	30.722	-0.719629
0.146667	30.733	-0.721668
0.148333	30.746	-0.723710
0.150000	30.757	-0.726396
0.151667	30.769	-0.729582
0.153333	30.782	-0.731919
0.155000	30.793	-0.734883
0.156667	30.805	-0.738037
0.158333	30.817	-0.740759
0.160000	30.830	-0.744216
0.161667	30.841	-0.747368
0.163333	30.853	-0.750147
0.165000	30.865	-0.753045
0.166667	30.878	-0.755770
0.168333	30.889	-0.758380
0.170000	30.901	-0.761206
0.171667	30.914	-0.764362
0.173333	30.926	-0.767042
0.175000	30.939	-0.769704
0.176667	30.951	-0.772712
0.178333	30.964	-0.776028
0.180000	30.975	-0.779334
0.181667	30.988	-0.782747
0.183333	31.000	-0.785096
0.185000	31.012	-0.788585
0.186667	31.025	-0.791047
0.188333	31.037	-0.794269
0.190000	31.050	-0.797157
0.191667	31.062	-0.800623
0.193333	31.074	-0.803943
0.195000	31.086	-0.807550
0.196667	31.099	-0.811255
0.198333	31.111	-0.815309
0.200000	31.123	-0.819590
0.201667	31.137	-0.823180
0.203333	31.148	-0.826701
0.205000	31.162	-0.830389
0.206667	31.174	-0.834328
0.208333	31.187	-0.838623
0.210000	31.199	-0.842815
0.211667	31.212	-0.847125
0.213333	31.225	-0.851592
0.215000	31.238	-0.856682
0.216667	31.250	-0.861187
0.218333	31.263	-0.866864
0.220000	31.275	-0.871308
0.221667	31.288	-0.876344
0.223333	31.301	-0.881633
0.225000	31.314	-0.886675
0.226667	31.327	-0.892615
0.228333	31.340	-0.898104
0.230000	31.353	-0.904046
0.231667	31.365	-0.910145
0.233333	31.379	-0.916315
0.235000	31.390	-0.923177
0.236667	31.403	-0.930603
0.238333	31.416	-0.938729
0.240000	31.429	-0.947410
0.241667	31.440	-0.956939
0.243333	31.453	-0.966659
0.245000	31.464	-0.976724
0.246667	31.477	-0.987606
0.248333	31.490	-0.998593
0.250000	31.503	-1.00953
0.251667	31.514	-1.02062
0.253333	31.528	-1.03256
0.255000	31.541	-1.04430
0.256667	31.552	-1.05676
0.258333	31.564	-1.06913
0.260000	31.577	-1.08144
0.261667	31.590	-1.09472
0.263333	31.601	-1.10775
0.265000	31.614	-1.12135
0.266667	31.626	-1.13591
0.268333	31.639	-1.15055
0.270000	31.650	-1.16632
0.271667	31.662	-1.18361
0.273333	31.674	-1.20166
0.275000	31.685	-1.22036
0.276667	31.697	-1.23892
0.278333	31.709	-1.25815
0.280000	31.721	-1.27806
0.281667	31.731	-1.29792
0.283333	31.743	-1.31817
0.285000	31.754	-1.33807
0.286667	31.766	-1.35732
0.288333	31.777	-1.37664
0.290000	31.788	-1.39595
0.291667	31.800	-1.41544
0.293333	31.812	-1.43469
0.295000	31.822	-1.45304
0.296667	31.833	-1.47272
0.298333	31.844	-1.49254
0.300000	31.855	-1.51242
0.301667	31.866	-1.53336
0.303333	31.876	-1.55466
0.305000	31.887	-1.57605
0.306667	31.898	-1.59785
0.308333	31.909	-1.61963
0.310000	31.918	-1.64253
0.311667	31.929	-1.66558
0.313333	31.940	-1.68847
0.315000	31.950	-1.71188
0.316667	31.961	-1.73463
0.318333	31.971	-1.75700
0.320000	31.982	-1.77841
0.321667	31.992	-1.79946
0.323333	32.001	-1.81892
0.325000	32.013	-1.83760
0.326667	32.023	-1.85603
0.328333	32.033	-1.87459
0.330000	32.044	-1.89267
0.331667	32.054	-1.91138
0.333333	32.064	-1.93070
0.335000	32.075	-1.95071
0.336667	32.085	-1.97109
0.338333	32.095	-1.99346
0.340000	32.104	-2.01750
0.341667	32.114	-2.04209
0.343333	32.125	-2.06829
0.345000	32.136	-2.09429
0.346667	32.145	-2.12009
0.348333	32.154	-2.14466
0.350000	32.164	-2.16838
0.351667	32.174	-2.19072
0.353333	32.184	-2.21158
0.355000	32.193	-2.23107
0.356667	32.203	-2.24996
0.358333	32.214	-2.26863
0.360000	32.222	-2.28741
0.361667	32.234	-2.30751
0.363333	32.244	-2.32886
0.365000	32.253	-2.35111
0.366667	32.263	-2.37321
0.368333	32.271	-2.39584
0.370000	32.282	-2.41796
0.371667	32.291	-2.43896
0.373333	32.301	-2.46008
0.375000	32.311	-2.47997
0.376667	32.320	-2.49805
0.378333	32.329	-2.51533
0.380000	32.340	-2.53159
0.381667	32.351	-2.54778
0.383333	32.361	-2.56496
0.385000	32.370	-2.58238
0.386667	32.380	-2.60002
0.388333	32.391	-2.61801
0.390000	32.401	-2.63500
0.391667	32.410	-2.65253
0.393333	32.421	-2.67084
0.395000	32.430	-2.68814
0.396667	32.439	-2.70549
0.398333	32.450	-2.72309
0.400000	32.461	-2.74164
0.401667	32.472	-2.76158
0.403333	32.481	-2.78338
0.405000	32.491	-2.80663
0.406667	32.502	-2.83042
0.408333	32.512	-2.85619
0.410000	32.521	-2.88417
0.411667	32.531	-2.91529
0.413333	32.540	-2.94822
0.415000	32.550	-2.98263
0.416667	32.560	-3.01853
0.418333	32.570	-3.05404
0.420000	32.579	-3.08960
0.421667	32.587	-3.12368
0.423333	32.595	-3.15669
0.425000	32.604	-3.18723
0.426667	32.613	-3.21549
0.428333	32.622	-3.24173
0.430000	32.632	-3.26469
0.431667	32.640	-3.28530
0.433333	32.648	-3.30248
0.435000	32.657	-3.31812
0.436667	32.667	-3.32977
0.438333	32.675	-3.34002
0.440000	32.685	-3.34825
0.441667	32.695	-3.35655
0.443333	32.705	-3.36519
0.445000	32.715	-3.37526
0.446667	32.725	-3.38678
0.448333	32.735	-3.39866
0.450000	32.744	-3.41104
0.451667	32.755	-3.42281
0.453333	32.765	-3.43436
0.455000	32.775	-3.44467
0.456667	32.786	-3.45557
0.458333	32.797	-3.46637
0.460000	32.807	-3.47817
0.461667	32.817	-3.49135
0.463333	32.829	-3.50647
0.465000	32.839	-3.52368
0.466667	32.850	-3.54181
0.468333	32.861	-3.56236
0.470000	32.871	-3.58538
0.471667	32.883	-3.60901
0.473333	32.893	-3.63417
0.475000	32.903	-3.66010
0.476667	32.912	-3.68483
0.478333	32.922	-3.70898
0.480000	32.933	-3.73280
0.481667	32.943	-3.75680
0.483333	32.952	-3.78153
0.485000	32.963	-3.80496
0.486667	32.973	-3.82744
0.488333	32.983	-3.84986
0.490000	32.992	-3.87091
0.491667	33.002	-3.89146
0.493333	33.013	-3.91013
0.495000	33.023	-3.92720
0.496667	33.033	-3.94189
0.498333	33.044	-3.95561
0.500000	33.054	-3.96858
0.501667	33.064	-3.98213
0.503333	33.075	-3.99529
0.505000	33.085	-4.00798
0.506667	33.096	-4.02144
0.508333	33.107	-4.03419
0.510000	33.118	-4.04745
0.511667	33.128	-4.05994
0.513333	33.138	-4.07303
0.515000	33.149	-4.08640
0.516667	33.159	-4.09942
0.518333	33.170	-4.11152
0.520000	33.181	-4.12194
0.521667	33.193	-4.12924
0.523333	33.203	-4.13419
0.525000	33.215	-4.13664
0.526667	33.227	-4.13628
0.528333	33.238	-4.13433
0.530000	33.250	-4.13161
0.531667	33.261	-4.12896
0.533333	33.274	-4.12878
0.535000	33.286	-4.12879
0.536667	33.298	-4.13033
0.538333	33.311	-4.13271
0.540000	33.323	-4.13557
0.541667	33.336	-4.13863
0.543333	33.348	-4.14270
0.545000	33.361	-4.14595
0.546667	33.374	-4.14857
0.548333	33.388	-4.15099
0.550000	33.401	-4.15373
0.551667	33.412	-4.15736
0.553333	33.425	-4.16076
0.555000	33.439	-4.16493
0.556667	33.451	-4.16926
0.558333	33.464	-4.17379
0.560000	33.477	-4.17825
0.561667	33.491	-4.18250
0.563333	33.505	-4.18618
0.565000	33.518	-4.18908
0.566667	33.532	-4.18876
0.568333	33.545	-4.18707
0.570000	33.559	-4.18303
0.571667	33.572	-4.17617
0.573333	33.587	-4.16839
0.575000	33.600	-4.15940
0.576667	33.615	-4.14940
0.578333	33.630	-4.14000
0.580000	33.644	-4.13096
0.581667	33.659	-4.12265
0.583333	33.673	-4.11610
0.585000	33.688	-4.10964
0.586667	33.704	-4.10330
0.588333	33.718	-4.09772
0.590000	33.733	-4.09192
0.591667	33.748	-4.08683
0.593333	33.763	-4.08116
0.595000	33.779	-4.07540
0.596667	33.795	-4.06925
0.598333	33.810	-4.06197
0.600000	33.825	-4.05489
0.601667	33.841	-4.04783
0.603333	33.857	-4.04095
0.605000	33.873	-4.03350
0.606667	33.888	-4.02548
0.608333	33.905	-4.01709
0.610000	33.921	-4.00906
0.611667	33.938	-4.00107
0.613333	33.954	-3.99347
0.615000	33.970	-3.98571
0.616667	33.986	-3.97753
0.618333	34.002	-3.96885
0.620000	34.019	-3.95982
0.621667	34.035	-3.95140
0.623333	34.052	-3.94257
0.625000	34.069	-3.93296
0.626667	34.086	-3.92260
0.628333	34.103	-3.91267
0.630000	34.120	-3.90192
0.631667	34.136	-3.89108
0.633333	34.153	-3.88030
0.635000	34.171	-3.86810
0.636667	34.187	-3.85516
0.638333	34.206	-3.84092
0.640000	34.223	-3.82599
0.641667	34.241	-3.81002
0.643333	34.260	-3.79253
0.645000	34.278	-3.77424
0.646667	34.295	-3.75366
0.648333	34.313	-3.73245
0.650000	34.330	-3.70963
0.651667	34.348	-3.68690
0.653333	34.368	-3.66271
0.655000	34.386	-3.63899
0.656667	34.405	-3.61447
0.658333	34.424	-3.58990
0.660000	34.444	-3.56406
0.661667	34.462	-3.53774
0.663333	34.482	-3.51076
0.665000	34.501	-3.48150
0.666667	34.521	-3.45082
0.668333	34.540	-3.41745
0.670000	34.561	-3.38121
0.671667	34.581	-3.34203
0.673333	34.601	-3.30079
0.675000	34.623	-3.25642
0.676667	34.644	-3.21012
0.678333	34.665	-3.16217
0.680000	34.687	-3.11347
0.681667	34.710	-3.06424
0.683333	34.732	-3.01497
0.685000	34.754	-2.96641
0.686667	34.778	-2.91902
0.688333	34.800	-2.87299
0.690000	34.822	-2.82817
0.691667	34.846	-2.78359
0.693333	34.870	-2.73901
0.695000	34.894	-2.69480
0.696667	34.918	-2.65126
0.698333	34.942	-2.60687
0.700000	34.965	-2.56303
0.701667	34.990	-2.51821
0.703333	35.015	-2.47204
0.705000	35.039	-2.42627
0.706667	35.065	-2.38108
0.708333	35.088	-2.33607
0.710000	35.113	-2.29093
0.711667	35.139	-2.24638
0.713333	35.164	-2.20315
0.715000	35.189	-2.16155
0.716667	35.215	-2.12165
0.718333	35.241	-2.08255
0.720000	35.267	-2.04553
0.721667	35.293	-2.00870
0.723333	35.319	-1.97352
0.725000	35.345	-1.93885
0.726667	35.371	-1.90646
0.728333	35.397	-1.87454
0.730000	35.421	-1.84413
0.731667	35.447	-1.81460
0.733333	35.472	-1.78659
0.735000	35.499	-1.76039
0.736667	35.524	-1.73551
0.738333	35.550	-1.71095
0.740000	35.576	-1.68718
0.741667	35.602	-1.66427
0.743333	35.626	-1.64159
0.745000	35.651	-1.62037
0.746667	35.676	-1.60044
0.748333	35.701	-1.58118
0.750000	35.726	-1.56171
0.751667	35.752	-1.54298
0.753333	35.777	-1.52487
0.755000	35.802	-1.50777
0.756667	35.827	-1.49151
0.758333	35.852	-1.47480
0.760000	35.876	-1.45802
0.761667	35.901	-1.44192
0.763333	35.925	-1.42613
0.765000	35.950	-1.41172
0.766667	35.974	-1.39811
0.768333	35.998	-1.38417
0.770000	36.022	-1.37021
0.771667	36.046	-1.35686
0.773333	36.069	-1.34257
0.775000	36.093	-1.32890
0.776667	36.117	-1.31484
0.778333	36.139	-1.30082
0.780000	36.164	-1.28823
0.781667	36.188	-1.27587
0.783333	36.211	-1.26329
0.785000	36.235	-1.25169
0.786667	36.258	-1.23984
0.788333	36.282	-1.22826
0.790000	36.303	-1.21692
0.791667	36.327	-1.20486
0.793333	36.351	-1.19328
0.795000	36.373	-1.18149
0.796667	36.395	-1.16960
0.798333	36.419	-1.15887
0.800000	36.441	-1.14825
0.801667	36.463	-1.13854
0.803333	36.486	-1.12897
0.805000	36.508	-1.11939
0.806667	36.531	-1.11010
0.808333	36.553	-1.10013
0.810000	36.576	-1.09124
0.811667	36.596	-1.08229
0.813333	36.619	-1.07285
0.815000	36.640	-1.06308
0.816667	36.662	-1.05353
0.818333	36.685	-1.04383
0.820000	36.706	-1.03435
0.821667	36.729	-1.02443
0.823333	36.749	-1.01551
0.825000	36.770	-1.00661
0.826667	36.793	-0.997326
0.828333	36.814	-0.989151
0.830000	36.836	-0.981623
0.831667	36.857	-0.973752
0.833333	36.878	-0.966390
0.835000	36.899	-0.958867
0.836667	36.920	-0.952083
0.838333	36.941	-0.944864
0.840000	36.962	-0.937690
0.841667	36.983	-0.930339
0.843333	37.004	-0.922725
0.845000	37.024	-0.915034
0.846667	37.046	-0.907419
0.848333	37.067	-0.900076
0.850000	37.088	-0.891657
0.851667	37.108	-0.883756
0.853333	37.128	-0.876614
0.855000	37.148	-0.870018
0.856667	37.170	-0.863713
0.858333	37.190	-0.857628
0.860000	37.211	-0.851263
0.861667	37.232	-0.845246
0.863333	37.252	-0.839429
0.865000	37.272	-0.833951
0.866667	37.291	-0.828189
0.868333	37.311	-0.822081
0.870000	37.331	-0.815914
0.871667	37.351	-0.809598
0.873333	37.372	-0.803968
0.875000	37.391	-0.798062
0.876667	37.412	-0.792815
0.878333	37.432	-0.786627
0.880000	37.451	-0.780883
0.881667	37.472	-0.775368
0.883333	37.492	-0.770622
0.885000	37.511	-0.765759
0.886667	37.531	-0.760788
0.888333	37.550	-0.755761
0.890000	37.569	-0.750099
0.891667	37.590	-0.745359
0.893333	37.609	-0.741008
0.895000	37.629	-0.736512
0.896667	37.649	-0.731781
0.898333	37.668	-0.726693
0.900000	37.687	-0.721499
0.901667	37.706	-0.716896
0.903333	37.725	-0.712374
0.905000	37.745	-0.707955
0.906667	37.765	-0.703285
0.908333	37.783	-0.698196
0.910000	37.803	-0.693867
0.911667	37.823	-0.689598
0.913333	37.841	-0.684898
0.915000	37.860	-0.680880
0.916667	37.879	-0.676933
0.918333	37.898	-0.672999
0.920000	37.918	-0.669425
0.921667	37.936	-0.666535
0.923333	37.955	-0.663334
0.925000	37.973	-0.659930
0.926667	37.993	-0.656171
0.928333	38.012	-0.652829
0.930000	38.031	-0.649758
0.931667	38.049	-0.646423
0.933333	38.068	-0.642564
0.935000	38.087	-0.638861
0.936667	38.106	-0.634748
0.938333	38.125	-0.631323
0.940000	38.143	-0.628642
0.941667	38.162	-0.625371
0.943333	38.182	-0.621953
0.945000	38.199	-0.618575
0.946667	38.218	-0.615532
0.948333	38.237	-0.612488
0.950000	38.255	-0.609578
0.951667	38.274	-0.606298
0.953333	38.292	-0.603346
0.955000	38.311	-0.599646
0.956667	38.329	-0.597235
0.958333	38.347	-0.594720
0.960000	38.365	-0.591733
0.961667	38.383	-0.589382
0.963333	38.402	-0.586749
0.965000	38.420	-0.583900
0.966667	38.438	-0.581408
0.968333	38.458	-0.579269
0.970000	38.476	-0.576977
0.971667	38.494	-0.574326
0.973333	38.513	-0.571500
0.975000	38.532	-0.569569
0.976667	38.549	-0.567266
0.978333	38.567	-0.564332
0.980000	38.584	-0.561833
0.981667	38.602	-0.560071
0.983333	38.621	-0.558016
0.985000	38.638	-0.555895
0.986667	38.657	-0.554047
0.988333	38.675	-0.552806
0.990000	38.693	-0.551243
0.991667	38.711	-0.548902
0.993333	38.729	-0.547277
0.995000	38.746	-0.545057
0.996667	38.765	-0.542854
0.998333	38.783	-0.540968
1.00000	38.801	-0.539505
1.00167	38.819	-0.537036
1.00333	38.838	-0.535089
1.00500	38.855	-0.532481
1.00667	38.874	-0.530435
1.00833	38.891	-0.528334
1.01000	38.909	-0.526673
1.01167	38.927	-0.524972
1.01333	38.945	-0.523180
1.01500	38.962	-0.521518
1.01667	38.979	-0.519575
1.01833	38.998	-0.518187
1.02000	39.015	-0.516099
1.02167	39.033	-0.514884
1.02333	39.049	-0.513870
1.02500	39.067	-0.512691
1.02667	39.085	-0.511333
1.02833	39.104	-0.509942
1.03000	39.121	-0.508953
1.03167	39.139	-0.508341
1.03333	39.156	-0.506777
1.03500	39.173	-0.504752
1.03667	39.192	-0.502313
1.03833	39.210	-0.500153
1.04000	39.227	-0.498564
1.04167	39.244	-0.497188
1.04333	39.263	-0.495650
1.04500	39.280	-0.493500
1.04667	39.298	-0.492667
1.04833	39.315	-0.491603
1.05000	39.332	-0.491801
1.05167	39.351	-0.490731
1.05333	39.368	-0.490044
1.05500	39.385	-0.488611
1.05667	39.402	-0.487285
1.05833	39.421	-0.485621
1.06000	39.438	-0.484862
1.06167	39.455	-0.483115
1.06333	39.472	-0.481324
1.06500	39.489	-0.480346
1.06667	39.507	-0.478105
1.06833	39.525	-0.477361
1.07000	39.541	-0.476833
1.07167	39.559	-0.476211
1.07333	39.576	-0.475296
1.07500	39.595	-0.474388
1.07667	39.612	-0.472828
1.07833	39.629	-0.472559
1.08000	39.646	-0.472190
1.08167	39.663	-0.471179
1.08333	39.681	-0.469440
1.08500	39.698	-0.467148
1.08667	39.716	-0.465087
1.08833	39.733	-0.463959
1.09000	39.750	-0.462873
1.09167	39.767	-0.461797
1.09333	39.785	-0.461924
1.09500	39.802	-0.461720
1.09667	39.819	-0.461618
1.09833	39.837	-0.461327
1.10000	39.854	-0.461128
1.10167	39.871	-0.460244
1.10333	39.889	-0.458991
1.10500	39.906	-0.457254
1.10667	39.923	-0.455582
1.10833	39.940	-0.453869
1.11000	39.957	-0.452512
1.11167	39.975	-0.452373
1.11333	39.992	-0.452306
1.11500	40.009	-0.452369
1.11667	40.026	-0.451917
1.11833	40.043	-0.451726
1.12000	40.061	-0.451283
1.12167	40.077	-0.450137
1.12333	40.094	-0.449189
1.12500	40.112	-0.449249
1.12667	40.129	-0.448685
1.12833	40.147	-0.448272
1.13000	40.164	-0.447863
1.13167	40.179	-0.447144
1.13333	40.197	-0.446729
1.13500	40.213	-0.446242
1.13667	40.231	-0.445371
1.13833	40.247	-0.444366
1.14000	40.265	-0.443388
1.14167	40.283	-0.442253
1.14333	40.299	-0.441849
1.14500	40.317	-0.441249
1.14667	40.335	-0.440778
1.14833	40.350	-0.440268
1.15000	40.368	-0.439955
1.15167	40.385	-0.439712
1.15333	40.402	-0.439719
1.15500	40.419	-0.439614
1.15667	40.436	-0.439533
1.15833	40.453	-0.439485
1.16000	40.470	-0.439369
1.16167	40.487	-0.438966
1.16333	40.504	-0.438414
1.16500	40.521	-0.437578
1.16667	40.538	-0.436741
1.16833	40.556	-0.436116
1.17000	40.572	-0.435188
1.17167	40.590	-0.434791
1.17333	40.607	-0.434553
1.17500	40.624	-0.434137
1.17667	40.641	-0.433466
1.17833	40.657	-0.432627
1.18000	40.674	-0.431941
1.18167	40.691	-0.431334
1.18333	40.708	-0.430861
1.18500	40.725	-0.430496
1.18667	40.742	-0.430249
1.18833	40.759	-0.430095
1.19000	40.776	-0.430064
1.19167	40.793	-0.430137
1.19333	40.810	-0.430194
1.19500	40.827	-0.430127
1.19667	40.844	-0.429914
1.19833	40.860	-0.429731
1.20000	40.877	-0.429619
1.20167	40.894	-0.429517
1.20333	40.910	-0.429443
1.20500	40.928	-0.429282
1.20667	40.945	-0.429096
1.20833	40.961	-0.428783
1.21000	40.979	-0.428511
1.21167	40.995	-0.428193
1.21333	41.013	-0.427793
1.21500	41.030	-0.427393
1.21667	41.047	-0.427120
1.21833	41.063	-0.426806
1.22000	41.081	-0.426576
1.22167	41.097	-0.426455
1.22333	41.113	-0.426285
1.22500	41.132	-0.426153
1.22667	41.148	-0.426076
1.22833	41.164	-0.425977
1.23000	41.181	-0.425886
1.23167	41.197	-0.425786
1.23333	41.214	-0.425662
1.23500	41.231	-0.425479
1.23667	41.248	-0.425369
1.23833	41.266	-0.425323
1.24000	41.283	-0.425292
1.24167	41.299	-0.425257
1.24333	41.315	-0.425212
1.24500	41.333	-0.425174
1.24667	41.349	-0.425122
1.24833	41.366	-0.425070
1.25000	41.384	-0.425004
1.25167	41.400	-0.424894
1.25333	41.417	-0.424789
1.25500	41.433	-0.424719
1.25667	41.450	-0.424667
1.25833	41.467	-0.424625
1.26000	41.484	-0.424584
1.26167	41.499	-0.424562
1.26333	41.517	-0.424543
1.26500	41.534	-0.424456
1.26667	41.551	-0.424348
1.26833	41.569	-0.424275
1.27000	41.585	-0.424180
1.27167	41.602	-0.424099
1.27333	41.619	-0.424039
1.27500	41.635	-0.424005
1.27667	41.653	-0.423971
1.27833	41.670	-0.423956
1.28000	41.686	-0.423822
1.28167	41.703	-0.423770
1.28333	41.719	-0.423760
1.28500	41.736	-0.423746
1.28667	41.753	-0.423735
1.28833	41.770	-0.423723
1.29000	41.787	-0.423712
1.29167	41.804	-0.423701
1.29333	41.821	-0.423689
1.29500	41.837	-0.423672
1.29667	41.854	-0.423657
1.29833	41.871	-0.423625
1.30000	41.888	-0.423586
1.30167	41.904	-0.423552
1.30333	41.921	-0.423528
1.30500	41.938	-0.423431
1.30667	41.955	-0.423336
1.30833	41.972	-0.423292
1.31000	41.989	-0.423280
1.31167	42.007	-0.423247
1.31333	42.022	-0.423210
1.31500	42.040	-0.423199
1.31667	42.056	-0.423186
1.31833	42.072	-0.423169
1.32000	42.090	-0.423157
1.32167	42.105	-0.423145
1.32333	42.122	-0.423108
1.32500	42.139	-0.423081
1.32667	42.156	-0.423071
1.32833	42.172	-0.423059
1.33000	42.190	-0.423047
1.33167	42.207	-0.423032
1.33333	42.223	-0.423011
1.33500	42.240	-0.423001
1.33667	42.256	-0.422989
1.33833	42.273	-0.422974
1.34000	42.290	-0.422971
1.34167	42.308	-0.422979
1.34333	42.324	-0.422982
1.34500	42.341	-0.422978
1.34667	42.358	-0.422970
1.34833	42.374	-0.422957
1.35000	42.390	-0.422947
1.35167	42.407	-0.422935
1.35333	42.424	-0.422920
1.35500	42.441	-0.422904
1.35667	42.459	-0.422890
1.35833	42.474	-0.422880
1.36000	42.492	-0.422869
1.36167	42.508	-0.422858
1.36333	42.525	-0.422845
1.36500	42.542	-0.422833
1.36667	42.558	-0.422820
1.36833	42.574	-0.422802
1.37000	42.591	-0.422786
1.37167	42.608	-0.422773
1.37333	42.625	-0.422762
1.37500	42.642	-0.422752
1.37667	42.659	-0.422741
1.37833	42.675	-0.422732
1.38000	42.692	-0.422721
1.38167	42.708	-0.422712
1.38333	42.725	-0.422702
1.38500	42.741	-0.422694
1.38667	42.760	-0.422679
1.38833	42.776	-0.422664
1.39000	42.793	-0.422653
1.39167	42.810	-0.422643
1.39333	42.827	-0.422631
1.39500	42.842	-0.422617
1.39667	42.860	-0.422601
1.39833	42.875	-0.422584
1.40000	42.892	-0.422564
1.40167	42.910	-0.422546
1.40333	42.926	-0.422527
1.40500	42.943	-0.422507
1.40667	42.959	-0.422488
1.40833	42.976	-0.422472
1.41000	42.993	-0.422460
1.41167	43.009	-0.422452
1.41333	43.026	-0.422443
1.41500	43.043	-0.422429
1.41667	43.059	-0.422413
1.41833	43.076	-0.422401
1.42000	43.093	-0.422388
1.42167	43.110	-0.422377
1.42333	43.126	-0.422370
1.42500	43.144	-0.422363
1.42667	43.161	-0.422361
1.42833	43.177	-0.422364
1.43000	43.194	-0.422369
1.43167	43.210	-0.422370
1.43333	43.227	-0.422371
1.43500	43.243	-0.422371
1.43667	43.260	-0.422367
1.43833	43.277	-0.422361
1.44000	43.294	-0.422354
1.44167	43.309	-0.422350
1.44333	43.326	-0.422342
1.44500	43.343	-0.422336
1.44667	43.360	-0.422326
1.44833	43.377	-0.422317
1.45000	43.393	-0.422305
1.45167	43.411	-0.422295
1.45333	43.427	-0.422288
1.45500	43.444	-0.422284
1.45667	43.461	-0.422283
1.45833	43.478	-0.422284
1.46000	43.495	-0.422282
1.46167	43.511	-0.422283
1.46333	43.528	-0.422283
1.46500	43.545	-0.422281
1.46667	43.561	-0.422280
1.46833	43.577	-0.422274
1.47000	43.593	-0.422270
1.47167	43.610	-0.422268
1.47333	43.627	-0.422269
1.47500	43.643	-0.422273
1.47667	43.661	-0.422275
1.47833	43.678	-0.422272
1.48000	43.695	-0.422270
1.48167	43.712	-0.422269
1.48333	43.729	-0.422268
1.48500	43.745	-0.422270
1.48667	43.762	-0.422274
1.48833	43.778	-0.422277
1.49000	43.795	-0.422280
1.49167	43.812	-0.422275
1.49333	43.828	-0.422272
1.49500	43.845	-0.422266
1.49667	43.861	-0.422259
1.49833	43.878	-0.422248
1.50000	43.894	-0.422238
1.50167	43.912	-0.422230
1.50333	43.928	-0.422219
1.50500	43.945	-0.422211
1.50667	43.962	-0.422203
1.50833	43.979	-0.422194
1.51000	43.995	-0.422184
1.51167	44.012	-0.422179
1.51333	44.029	-0.422173
1.51500	44.046	-0.422170
1.51667	44.062	-0.422164
1.51833	44.079	-0.422157
1.52000	44.094	-0.422159
1.52167	44.112	-0.422161
1.52333	44.129	-0.422164
1.52500	44.145	-0.422164
1.52667	44.163	-0.422163
1.52833	44.180	-0.422162
1.53000	44.196	-0.422167
1.53167	44.211	-0.422177
1.53333	44.229	-0.422189
1.53500	44.246	-0.422195
1.53667	44.263	-0.422204
1.53833	44.279	-0.422216
1.54000	44.296	-0.422223
1.54167	44.313	-0.422220
1.54333	44.329	-0.422215
1.54500	44.346	-0.422211
1.54667	44.362	-0.422203
1.54833	44.379	-0.422191
1.55000	44.395	-0.422183
1.55167	44.412	-0.422173
1.55333	44.429	-0.422164
1.55500	44.445	-0.422161
1.55667	44.462	-0.422164
1.55833	44.479	-0.422165
1.56000	44.495	-0.422166
1.56167	44.513	-0.422172
1.56333	44.529	-0.422184
1.56500	44.546	-0.422193
1.56667	44.563	-0.422201
1.56833	44.579	-0.422210
1.57000	44.596	-0.422218
1.57167	44.612	-0.422218
1.57333	44.629	-0.422211
1.57500	44.646	-0.422205
1.57667	44.662	-0.422195
1.57833	44.679	-0.422184
1.58000	44.696	-0.422171
1.58167	44.713	-0.422158
1.58333	44.730	-0.422151
1.58500	44.747	-0.422147
1.58667	44.763	-0.422140
1.58833	44.780	-0.422137
1.59000	44.796	-0.422138
1.59167	44.813	-0.422144
1.59333	44.830	-0.422149
1.59500	44.846	-0.422156
1.59667	44.863	-0.422164
1.59833	44.880	-0.422171
1.60000	44.897	-0.422184
1.60167	44.914	-0.422210
1.60333	44.931	-0.422240
1.60500	44.947	-0.422249
1.60667	44.964	-0.422250
1.60833	44.980	-0.422251
1.61000	44.997	-0.422253
1.61167	45.012	-0.422250
1.61333	45.030	-0.422243
1.61500	45.046	-0.422232
1.61667	45.063	-0.422224
1.61833	45.081	-0.422220
1.62000	45.097	-0.422218
1.62167	45.114	-0.422219
1.62333	45.131	-0.422222
1.62500	45.147	-0.422225
1.62667	45.164	-0.422227
1.62833	45.180	-0.422233
1.63000	45.196	-0.422238
1.63167	45.214	-0.422240
1.63333	45.229	-0.422243
1.63500	45.246	-0.422249
1.63667	45.263	-0.422253
1.63833	45.279	-0.422250
1.64000	45.296	-0.422247
1.64167	45.313	-0.422241
1.64333	45.330	-0.422238
1.64500	45.347	-0.422240
1.64667	45.364	-0.422240
1.64833	45.380	-0.422242
1.65000	45.397	-0.422246
1.65167	45.414	-0.422251
1.65333	45.430	-0.422255
1.65500	45.446	-0.422258
1.65667	45.464	-0.422252
1.65833	45.480	-0.422248
1.66000	45.496	-0.422245
1.66167	45.514	-0.422243
1.66333	45.530	-0.422244
1.66500	45.548	-0.422248
1.66667	45.563	-0.422250
1.66833	45.581	-0.422252
1.67000	45.597	-0.422256
1.67167	45.613	-0.422260
1.67333	45.630	-0.422267
1.67500	45.646	-0.422274
1.67667	45.664	-0.422281
1.67833	45.681	-0.422290
1.68000	45.697	-0.422299
1.68167	45.714	-0.422306
1.68333	45.731	-0.422313
1.68500	45.747	-0.422320
1.68667	45.764	-0.422329
1.68833	45.780	-0.422332
1.69000	45.797	-0.422328
1.69167	45.814	-0.422322
1.69333	45.831	-0.422316
1.69500	45.848	-0.422308
1.69667	45.865	-0.422303
1.69833	45.881	-0.422298
1.70000	45.899	-0.422293
1.70167	45.915	-0.422288
1.70333	45.932	-0.422287
1.70500	45.949	-0.422296
1.70667	45.966	-0.422307
1.70833	45.982	-0.422319
1.71000	45.998	-0.422325
1.71167	46.016	-0.422332
1.71333	46.033	-0.422339
1.71500	46.049	-0.422346
1.71667	46.065	-0.422356
1.71833	46.082	-0.422362
1.72000	46.099	-0.422362
1.72167	46.117	-0.422362
1.72333	46.133	-0.422363
1.72500	46.150	-0.422364
1.72667	46.165	-0.422370
1.72833	46.183	-0.422367
1.73000	46.201	-0.422366
1.73167	46.217	-0.422367
1.73333	46.233	-0.422365
1.73500	46.251	-0.422362
1.73667	46.266	-0.422358
1.73833	46.284	-0.422351
1.74000	46.300	-0.422342
1.74167	46.316	-0.422329
1.74333	46.332	-0.422316
1.74500	46.350	-0.422306
1.74667	46.366	-0.422297
1.74833	46.382	-0.422292
1.75000	46.399	-0.422293
1.75167	46.416	-0.422294
1.75333	46.432	-0.422294
1.75500	46.449	-0.422295
1.75667	46.465	-0.422295
1.75833	46.483	-0.422300
1.76000	46.499	-0.422294
1.76167	46.516	-0.422284
1.76333	46.532	-0.422271
1.76500	46.549	-0.422261
1.76667	46.565	-0.422250
1.76833	46.581	-0.422241
1.77000	46.598	-0.422233
1.77167	46.615	-0.422226
1.77333	46.632	-0.422221
1.77500	46.648	-0.422216
1.77667	46.665	-0.422215
1.77833	46.682	-0.422211
1.78000	46.699	-0.422206
1.78167	46.715	-0.422199
1.78333	46.731	-0.422195
1.78500	46.749	-0.422193
1.78667	46.765	-0.422189
1.78833	46.783	-0.422186
1.79000	46.798	-0.422183
1.79167	46.816	-0.422179
1.79333	46.832	-0.422173
1.79500	46.848	-0.422169
1.79667	46.865	-0.422162
1.79833	46.882	-0.422156
1.80000	46.899	-0.422151
1.80167	46.914	-0.422145
1.80333	46.933	-0.422140
1.80500	46.949	-0.422137
1.80667	46.965	-0.422138
1.80833	46.982	-0.422140
1.81000	46.999	-0.422140
1.81167	47.015	-0.422141
1.81333	47.032	-0.422141
1.81500	47.048	-0.422140
1.81667	47.066	-0.422140
1.81833	47.082	-0.422138
1.82000	47.099	-0.422130
1.82167	47.116	-0.422119
1.82333	47.132	-0.422102
1.82500	47.149	-0.422087
1.82667	47.166	-0.422079
1.82833	47.183	-0.422068
1.83000	47.200	-0.422062
1.83167	47.216	-0.422060
1.83333	47.232	-0.422063
1.83500	47.249	-0.422068
1.83667	47.265	-0.422074
1.83833	47.282	-0.422081
1.84000	47.299	-0.422090
1.84167	47.316	-0.422092
1.84333	47.332	-0.422095
1.84500	47.349	-0.422102
1.84667	47.366	-0.422102
1.84833	47.383	-0.422105
1.85000	47.400	-0.422110
1.85167	47.417	-0.422113
1.85333	47.434	-0.422116
1.85500	47.451	-0.422120
1.85667	47.467	-0.422119
1.85833	47.485	-0.422121
1.86000	47.501	-0.422116
1.86167	47.518	-0.422112
1.86333	47.535	-0.422110
1.86500	47.551	-0.422105
1.86667	47.568	-0.422102
1.86833	47.585	-0.422096
1.87000	47.601	-0.422090
1.87167	47.619	-0.422084
1.87333	47.635	-0.422078
1.87500	47.651	-0.422069
1.87667	47.668	-0.422058
1.87833	47.684	-0.422049
1.88000	47.701	-0.422039
1.88167	47.717	-0.422033
1.88333	47.735	-0.422029
1.88500	47.751	-0.422027
1.88667	47.768	-0.422023
1.88833	47.784	-0.422017
1.89000	47.801	-0.422012
1.89167	47.817	-0.422012
1.89333	47.833	-0.422010
1.89500	47.851	-0.422004
1.89667	47.867	-0.421998
1.89833	47.884	-0.421985
1.90000	47.901	-0.421974
1.90167	47.917	-0.421961
1.90333	47.934	-0.421946
1.90500	47.951	-0.421922
1.90667	47.967	-0.421847
1.90833	47.984	-0.421808
1.91000	48.000	-0.421789
1.91167	48.016	-0.421773
1.91333	48.033	-0.421756
1.91500	48.050	-0.421741
1.91667	48.066	-0.421726
1.91833	48.085	-0.421720
1.92000	48.100	-0.421721
1.92167	48.117	-0.421729
1.92333	48.134	-0.421737
1.92500	48.151	-0.421739
1.92667	48.168	-0.421737
1.92833	48.184	-0.421731
1.93000	48.201	-0.421719
1.93167	48.218	-0.421707
1.93333	48.234	-0.421690
1.93500	48.250	-0.421674
1.93667	48.267	-0.421657
1.93833	48.283	-0.421642
1.94000	48.300	-0.421632
1.94167	48.317	-0.421630
1.94333	48.333	-0.421633
1.94500	48.351	-0.421636
1.94667	48.368	-0.421635
1.94833	48.385	-0.421632
1.95000	48.401	-0.421627
1.95167	48.418	-0.421622
1.95333	48.434	-0.421614
1.95500	48.451	-0.421602
1.95667	48.468	-0.421590
1.95833	48.484	-0.421577
1.96000	48.500	-0.421567
1.96167	48.517	-0.421556
1.96333	48.534	-0.421548
1.96500	48.551	-0.421536
1.96667	48.568	-0.421523
1.96833	48.584	-0.421510
1.97000	48.601	-0.421496
1.97167	48.617	-0.421479
1.97333	48.634	-0.421463
1.97500	48.651	-0.421450
1.97667	48.668	-0.421444
1.97833	48.685	-0.421440
1.98000	48.701	-0.421435
1.98167	48.719	-0.421435
1.98333	48.734	-0.421432
1.98500	48.752	-0.421424
1.98667	48.768	-0.421411
1.98833	48.785	-0.421394
1.99000	48.802	-0.421375
1.99167	48.819	-0.421356
1.99333	48.835	-0.421338
1.99500	48.852	-0.421329
1.99667	48.870	-0.421323
1.99833	48.885	-0.421323
2.00000	48.903	-0.421324
2.00167	48.918	-0.421328
2.00333	48.936	-0.421326
2.00500	48.952	-0.421320
2.00667	48.970	-0.421306
2.00833	48.986	-0.421298
2.01000	49.002	-0.421293
2.01167	49.020	-0.421287
2.01333	49.036	-0.421282
2.01500	49.052	-0.421279
2.01667	49.069	-0.421274
2.01833	49.085	-0.421261
2.02000	49.102	-0.421246
2.02167	49.119	-0.421233
2.02333	49.136	-0.421214
2.02500	49.153	-0.421175
2.02667	49.169	-0.421157
2.02833	49.186	-0.421142
2.03000	49.202	-0.421128
2.03167	49.220	-0.421114
2.03333	49.235	-0.421102
2.03500	49.252	-0.421090
2.03667	49.269	-0.421078
2.03833	49.286	-0.421070
2.04000	49.303	-0.421066
2.04167	49.319	-0.421062
2.04333	49.337	-0.421053
2.04500	49.352	-0.421043
2.04667	49.369	-0.421035
2.04833	49.387	-0.421021
2.05000	49.403	-0.421000
2.05167	49.419	-0.420976
2.05333	49.436	-0.420953
2.05500	49.453	-0.420926
2.05667	49.469	-0.420895
2.05833	49.486	-0.420863
2.06000	49.503	-0.420831
2.06167	49.520	-0.420795
2.06333	49.537	-0.420771
2.06500	49.553	-0.420748
2.06667	49.570	-0.420726
2.06833	49.585	-0.420709
2.07000	49.603	-0.420694
2.07167	49.620	-0.420688
2.07333	49.636	-0.420684
2.07500	49.654	-0.420678
2.07667	49.671	-0.420667
2.07833	49.687	-0.420657
2.08000	49.704	-0.420643
2.08167	49.721	-0.420628
2.08333	49.738	-0.420611
2.08500	49.755	-0.420589
2.08667	49.771	-0.420568
2.08833	49.788	-0.420551
2.09000	49.804	-0.420542
2.09167	49.821	-0.420532
2.09333	49.838	-0.420520
2.09500	49.855	-0.420507
2.09667	49.871	-0.420494
2.09833	49.887	-0.420475
2.10000	49.904	-0.420451
2.10167	49.920	-0.420428
2.10333	49.938	-0.420402
2.10500	49.955	-0.420377
2.10667	49.972	-0.420354
2.10833	49.988	-0.420337
2.11000	50.005	-0.420321
2.11167	50.021	-0.420305
2.11333	50.039	-0.420290
2.11500	50.055	-0.420273
2.11667	50.071	-0.420250
2.11833	50.089	-0.420223
2.12000	50.104	-0.420189
2.12167	50.122	-0.420135
2.12333	50.138	-0.420080
2.12500	50.154	-0.420049
2.12667	50.171	-0.420021
2.12833	50.188	-0.419998
2.13000	50.206	-0.419980
2.13167	50.222	-0.419961
2.13333	50.238	-0.419941
2.13500	50.254	-0.419919
2.13667	50.271	-0.419894
2.13833	50.288	-0.419869
2.14000	50.306	-0.419844
2.14167	50.323	-0.419815
2.14333	50.339	-0.419785
2.14500	50.355	-0.419755
2.14667	50.372	-0.419725
2.14833	50.388	-0.419698
2.15000	50.406	-0.419670
2.15167	50.422	-0.419642
2.15333	50.439	-0.419614
2.15500	50.456	-0.419588
2.15667	50.471	-0.419566
2.15833	50.489	-0.419544
2.16000	50.505	-0.419514
2.16167	50.521	-0.419481
2.16333	50.538	-0.419451
2.16500	50.555	-0.419426
2.16667	50.572	-0.419400
2.16833	50.589	-0.419373
2.17000	50.605	-0.419342
2.17167	50.621	-0.419311
2.17333	50.638	-0.419284
2.17500	50.656	-0.419257
2.17667	50.672	-0.419227
2.17833	50.689	-0.419193
2.18000	50.705	-0.419114
2.18167	50.722	-0.419053
2.18333	50.738	-0.419008
2.18500	50.755	-0.418974
2.18667	50.771	-0.418944
2.18833	50.788	-0.418912
2.19000	50.804	-0.418883
2.19167	50.822	-0.418855
2.19333	50.838	-0.418826
2.19500	50.855	-0.418790
2.19667	50.872	-0.418700
2.19833	50.889	-0.418500
2.20000	50.905	-0.418352
2.20167	50.922	-0.418250
2.20333	50.938	-0.418196
2.20500	50.954	-0.418160
2.20667	50.972	-0.418129
2.20833	50.989	-0.418102
2.21000	51.005	-0.418077
2.21167	51.022	-0.418053
2.21333	51.039	-0.418026
2.21500	51.055	-0.417991
2.21667	51.072	-0.417933
2.21833	51.090	-0.417885
2.22000	51.106	-0.417844
2.22167	51.122	-0.417805
2.22333	51.139	-0.417771
2.22500	51.155	-0.417743
2.22667	51.172	-0.417716
2.22833	51.189	-0.417689
2.23000	51.205	-0.417663
2.23167	51.222	-0.417633
2.23333	51.239	-0.417600
2.23500	51.255	-0.417565
2.23667	51.273	-0.417529
2.23833	51.289	-0.417495
2.24000	51.307	-0.417460
2.24167	51.323	-0.417424
2.24333	51.339	-0.417387
2.24500	51.356	-0.417349
2.24667	51.372	-0.417313
2.24833	51.389	-0.417274
2.25000	51.406	-0.417228
2.25167	51.421	-0.417148
2.25333	51.438	-0.416998
2.25500	51.456	-0.416883
2.25667	51.474	-0.416776
2.25833	51.490	-0.416706
2.26000	51.506	-0.416664
2.26167	51.524	-0.416625
2.26333	51.540	-0.416590
2.26500	51.556	-0.416558
2.26667	51.573	-0.416524
2.26833	51.590	-0.416489
2.27000	51.606	-0.416450
2.27167	51.624	-0.416382
2.27333	51.640	-0.416308
2.27500	51.657	-0.416126
2.27667	51.674	-0.415943
2.27833	51.690	-0.415800
2.28000	51.707	-0.415679
2.28167	51.723	-0.415590
2.28333	51.739	-0.415427
2.28500	51.757	-0.415273
2.28667	51.774	-0.415156
2.28833	51.791	-0.415080
2.29000	51.807	-0.415030
2.29167	51.824	-0.414980
2.29333	51.840	-0.414943
2.29500	51.856	-0.414886
2.29667	51.874	-0.414852
2.29833	51.891	-0.414820
2.30000	51.907	-0.414788
2.30167	51.924	-0.414753
2.30333	51.941	-0.414719
2.30500	51.957	-0.414688
2.30667	51.974	-0.414654
2.30833	51.990	-0.414615
2.31000	52.007	-0.414575
2.31167	52.024	-0.414526
2.31333	52.041	-0.414412
2.31500	52.057	-0.414093
2.31667	52.075	-0.413683
2.31833	52.091	-0.413489
2.32000	52.107	-0.413402
2.32167	52.124	-0.413357
2.32333	52.140	-0.413318
2.32500	52.157	-0.413264
2.32667	52.174	-0.413232
2.32833	52.190	-0.413203
2.33000	52.207	-0.413176
2.33167	52.224	-0.413148
2.33333	52.241	-0.413114
2.33500	52.258	-0.413078
2.33667	52.274	-0.413041
2.33833	52.292	-0.413005
2.34000	52.307	-0.412963
2.34167	52.324	-0.412900
2.34333	52.342	-0.412826
2.34500	52.358	-0.412729
2.34667	52.375	-0.412628
2.34833	52.390	-0.412491
2.35000	52.407	-0.412317
2.35167	52.424	-0.412147
2.35333	52.441	-0.412014
2.35500	52.457	-0.411906
2.35667	52.473	-0.411851
2.35833	52.490	-0.411807
2.36000	52.507	-0.411767
2.36167	52.523	-0.411733
2.36333	52.540	-0.411699
2.36500	52.557	-0.411666
2.36667	52.574	-0.411634
2.36833	52.591	-0.411599
2.37000	52.608	-0.411560
2.37167	52.626	-0.411518
2.37333	52.642	-0.411476
2.37500	52.658	-0.411436
2.37667	52.675	-0.411393
2.37833	52.691	-0.411324
2.38000	52.708	-0.411247
2.38167	52.725	-0.411204
2.38333	52.742	-0.411164
2.38500	52.758	-0.411123
2.38667	52.774	-0.411080
2.38833	52.792	-0.411041
2.39000	52.808	-0.411003
2.39167	52.826	-0.410964
2.39333	52.842	-0.410924
2.39500	52.858	-0.410866
2.39667	52.875	-0.410703
2.39833	52.891	-0.410459
2.40000	52.909	-0.410284
2.40167	52.926	-0.410119
2.40333	52.942	-0.409980
2.40500	52.958	-0.409782
2.40667	52.975	-0.409637
2.40833	52.991	-0.409591
2.41000	53.009	-0.409547
2.41167	53.026	-0.409491
2.41333	53.042	-0.409453
2.41500	53.060	-0.409412
2.41667	53.075	-0.409366
2.41833	53.092	-0.409311
2.42000	53.108	-0.409241
2.42167	53.125	-0.409195
2.42333	53.142	-0.409118
2.42500	53.158	-0.409022
2.42667	53.176	-0.408886
2.42833	53.192	-0.408785
2.43000	53.208	-0.408683
2.43167	53.225	-0.408609
2.43333	53.242	-0.408562
2.43500	53.260	-0.408511
2.43667	53.276	-0.408462
2.43833	53.293	-0.408413
2.44000	53.309	-0.408363
2.44167	53.326	-0.408299
2.44333	53.343	-0.408250
2.44500	53.360	-0.408199
2.44667	53.376	-0.408150
2.44833	53.392	-0.408101
2.45000	53.409	-0.408043
2.45167	53.426	-0.408001
2.45333	53.443	-0.407959
2.45500	53.460	-0.407915
2.45667	53.477	-0.407871
2.45833	53.493	-0.407824
2.46000	53.510	-0.407769
2.46167	53.526	-0.407671
2.46333	53.543	-0.407498
2.46500	53.559	-0.407325
2.46667	53.576	-0.407244
2.46833	53.593	-0.407193
2.47000	53.609	-0.407115
2.47167	53.627	-0.407053
2.47333	53.642	-0.406994
2.47500	53.659	-0.406943
2.47667	53.677	-0.406893
2.47833	53.694	-0.406843
2.48000	53.710	-0.406791
2.48167	53.727	-0.406715
2.48333	53.743	-0.406650
2.48500	53.760	-0.406596
2.48667	53.777	-0.406520
2.48833	53.793	-0.406414
2.49000	53.810	-0.406257
2.49167	53.826	-0.406034
2.49333	53.843	-0.405935
2.49500	53.861	-0.405825
2.49667	53.876	-0.405753
2.49833	53.894	-0.405689
2.50000	53.911	-0.405637
2.50167	53.926	-0.405567
2.50333	53.944	-0.405505
2.50500	53.960	-0.405456
2.50667	53.977	-0.405402
2.50833	53.993	-0.405298
2.51000	54.011	-0.405155
2.51167	54.027	-0.405080
2.51333	54.043	-0.404988
2.51500	54.061	-0.404872
2.51667	54.077	-0.404797
2.51833	54.094	-0.404742
2.52000	54.111	-0.404690
2.52167	54.127	-0.404642
2.52333	54.144	-0.404597
2.52500	54.161	-0.404540
2.52667	54.177	-0.404490
2.52833	54.193	-0.404440
2.53000	54.210	-0.404387
2.53167	54.226	-0.404333
2.53333	54.243	-0.404278
2.53500	54.260	-0.404203
2.53667	54.277	-0.404102
2.53833	54.294	-0.404034
2.54000	54.311	-0.403929
2.54167	54.328	-0.403730
2.54333	54.344	-0.403563
2.54500	54.361	-0.403421
2.54667	54.377	-0.403344
2.54833	54.394	-0.403289
2.55000	54.410	-0.403235
2.55167	54.427	-0.403157
2.55333	54.445	-0.403100
2.55500	54.461	-0.403018
2.55667	54.478	-0.402942
2.55833	54.494	-0.402814
2.56000	54.510	-0.402463
2.56167	54.527	-0.402079
2.56333	54.544	-0.401665
2.56500	54.562	-0.401410
2.56667	54.578	-0.401242
2.56833	54.594	-0.401143
2.57000	54.611	-0.401091
2.57167	54.628	-0.401041
2.57333	54.644	-0.400944
2.57500	54.661	-0.400895
2.57667	54.678	-0.400852
2.57833	54.694	-0.400803
2.58000	54.710	-0.400751
2.58167	54.727	-0.400695
2.58333	54.744	-0.400644
2.58500	54.761	-0.400590
2.58667	54.778	-0.400497
2.58833	54.794	-0.400389
2.59000	54.811	-0.400300
2.59167	54.828	-0.400227
2.59333	54.845	-0.400161
2.59500	54.862	-0.400109
2.59667	54.878	-0.400053
2.59833	54.895	-0.399999
2.60000	54.912	-0.399950
2.60167	54.929	-0.399894
2.60333	54.946	-0.399842
2.60500	54.962	-0.399760
2.60667	54.978	-0.399568
2.60833	54.995	-0.399342
2.61000	55.011	-0.399092
2.61167	55.028	-0.398883
2.61333	55.045	-0.398729
2.61500	55.062	-0.398636
2.61667	55.078	-0.398583
2.61833	55.096	-0.398534
2.62000	55.111	-0.398491
2.62167	55.128	-0.398449
2.62333	55.144	-0.398383
2.62500	55.162	-0.398318
2.62667	55.178	-0.398270
2.62833	55.195	-0.398223
2.63000	55.211	-0.398177
2.63167	55.228	-0.398127
2.63333	55.245	-0.398044
2.63500	55.262	-0.397909
2.63667	55.279	-0.397687
2.63833	55.296	-0.397440
2.64000	55.312	-0.397114
2.64167	55.328	-0.396761
2.64333	55.345	-0.396401
2.64500	55.362	-0.396112
2.64667	55.378	-0.395907
2.64833	55.396	-0.395765
2.65000	55.411	-0.395647
2.65167	55.428	-0.395576
2.65333	55.446	-0.395527
2.65500	55.462	-0.395478
2.65667	55.479	-0.395428
2.65833	55.495	-0.395370
2.66000	55.512	-0.395296
2.66167	55.528	-0.395214
2.66333	55.545	-0.395144
2.66500	55.562	-0.395086
2.66667	55.579	-0.395035
2.66833	55.595	-0.394858
2.67000	55.613	-0.394642
2.67167	55.629	-0.394331
2.67333	55.645	-0.394052
2.67500	55.661	-0.393734
2.67667	55.678	-0.393412
2.67833	55.696	-0.393058
2.68000	55.712	-0.392727
2.68167	55.728	-0.392442
2.68333	55.746	-0.392354
2.68500	55.763	-0.392235
2.68667	55.780	-0.392192
2.68833	55.795	-0.392149
2.69000	55.813	-0.392103
2.69167	55.829	-0.392059
2.69333	55.845	-0.392014
2.69500	55.862	-0.391956
2.69667	55.879	-0.391853
2.69833	55.896	-0.391733
2.70000	55.912	-0.391539
2.70167	55.930	-0.391446
2.70333	55.946	-0.391400
2.70500	55.962	-0.391353
2.70667	55.979	-0.391289
2.70833	55.996	-0.391211
2.71000	56.013	-0.391139
2.71167	56.029	-0.391067
2.71333	56.045	-0.390950
2.71500	56.062	-0.390793
2.71667	56.080	-0.390617
2.71833	56.095	-0.390514
2.72000	56.112	-0.390466
2.72167	56.129	-0.390417
2.72333	56.145	-0.390346
2.72500	56.163	-0.390237
2.72667	56.180	-0.390094
2.72833	56.196	-0.390012
2.73000	56.213	-0.389962
2.73167	56.229	-0.389883
2.73333	56.245	-0.389760
2.73500	56.262	-0.389607
2.73667	56.280	-0.389484
2.73833	56.295	-0.389378
2.74000	56.314	-0.389325
2.74167	56.330	-0.389244
2.74333	56.347	-0.389067
2.74500	56.364	-0.388857
2.74667	56.381	-0.388761
2.74833	56.397	-0.388702
2.75000	56.413	-0.388651
2.75167	56.429	-0.388561
2.75333	56.445	-0.388383
2.75500	56.463	-0.388091
2.75667	56.480	-0.387838
2.75833	56.497	-0.387640
2.76000	56.512	-0.387356
2.76167	56.530	-0.387094
2.76333	56.546	-0.386915
2.76500	56.563	-0.386855
2.76667	56.580	-0.386794
2.76833	56.596	-0.386733
2.77000	56.613	-0.386655
2.77167	56.629	-0.386551
2.77333	56.646	-0.386454
2.77500	56.663	-0.386340
2.77667	56.680	-0.386182
2.77833	56.697	-0.385866
2.78000	56.712	-0.385380
2.78167	56.730	-0.384980
2.78333	56.746	-0.384672
2.78500	56.763	-0.384245
2.78667	56.780	-0.383595
2.78833	56.797	-0.382957
2.79000	56.813	-0.382509
2.79167	56.829	-0.382161
2.79333	56.847	-0.381963
2.79500	56.862	-0.381889
2.79667	56.880	-0.381822
2.79833	56.896	-0.381780
2.80000	56.913	-0.381734
2.80167	56.930	-0.381668
2.80333	56.946	-0.381602
2.80500	56.963	-0.381503
2.80667	56.979	-0.381276
2.80833	56.997	-0.381099
2.81000	57.013	-0.380945
2.81167	57.030	-0.380862
2.81333	57.047	-0.380815
2.81500	57.064	-0.380776
2.81667	57.080	-0.380658
2.81833	57.097	-0.380621
2.82000	57.113	-0.380547
2.82167	57.129	-0.380419
2.82333	57.147	-0.380192
2.82500	57.163	-0.379791
2.82667	57.179	-0.379422
2.82833	57.197	-0.379055
2.83000	57.214	-0.378761
2.83167	57.231	-0.378512
2.83333	57.247	-0.378302
2.83500	57.265	-0.378120
2.83667	57.281	-0.377998
2.83833	57.297	-0.377816
2.84000	57.313	-0.377623
2.84167	57.330	-0.377291
2.84333	57.347	-0.376996
2.84500	57.364	-0.376757
2.84667	57.380	-0.376558
2.84833	57.397	-0.376437
2.85000	57.413	-0.376353
2.85167	57.430	-0.376294
2.85333	57.447	-0.376234
2.85500	57.464	-0.376117
2.85667	57.480	-0.375937
2.85833	57.498	-0.375784
2.86000	57.514	-0.375572
2.86167	57.530	-0.375352
2.86333	57.547	-0.375043
2.86500	57.564	-0.374634
2.86667	57.581	-0.374464
2.86833	57.597	-0.374318
2.87000	57.614	-0.374206
2.87167	57.631	-0.374153
2.87333	57.647	-0.374036
2.87500	57.664	-0.373879
2.87667	57.681	-0.373717
2.87833	57.699	-0.373663
2.88000	57.715	-0.373609
2.88167	57.731	-0.373527
2.88333	57.747	-0.373435
2.88500	57.764	-0.373388
2.88667	57.782	-0.373322
2.88833	57.798	-0.373262
2.89000	57.815	-0.373177
2.89167	57.831	-0.373114
2.89333	57.847	-0.373055
2.89500	57.863	-0.372957
2.89667	57.881	-0.372841
2.89833	57.898	-0.372666
2.90000	57.914	-0.372462
2.90167	57.931	-0.372287
2.90333	57.948	-0.372170
2.90500	57.964	-0.371995
2.90667	57.980	-0.371765
2.90833	57.997	-0.371587
2.91000	58.015	-0.371520
2.91167	58.030	-0.371375
2.91333	58.047	-0.371338
2.91500	58.065	-0.371258
2.91667	58.080	-0.371115
2.91833	58.097	-0.370993
2.92000	58.114	-0.370870
2.92167	58.131	-0.370745
2.92333	58.148	-0.370500
2.92500	58.163	-0.370288
2.92667	58.181	-0.370138
2.92833	58.197	-0.370087
2.93000	58.213	-0.370050
2.93167	58.230	-0.370011
2.93333	58.247	-0.369952
2.93500	58.264	-0.369854
2.93667	58.280	-0.369780
2.93833	58.298	-0.369681
2.94000	58.314	-0.369530
2.94167	58.330	-0.369209
2.94333	58.347	-0.368770
2.94500	58.364	-0.368474
2.94667	58.381	-0.368165
2.94833	58.398	-0.367910
2.95000	58.413	-0.367688
2.95167	58.430	-0.367518
2.95333	58.447	-0.367308
2.95500	58.464	-0.367055
2.95667	58.479	-0.366774
2.95833	58.497	-0.366581
2.96000	58.514	-0.366353
2.96167	58.530	-0.366045
2.96333	58.547	-0.365844
2.96500	58.564	-0.365757
2.96667	58.581	-0.365704
2.96833	58.597	-0.365648
2.97000	58.613	-0.365612
2.97167	58.630	-0.365570
2.97333	58.646	-0.365526
2.97500	58.663	-0.365455
2.97667	58.680	-0.365367
2.97833	58.697	-0.365234
2.98000	58.713	-0.365062
2.98167	58.729	-0.364848
2.98333	58.746	-0.364725
2.98500	58.763	-0.364588
2.98667	58.780	-0.364402
2.98833	58.797	-0.364218
2.99000	58.813	-0.363984
2.99167	58.830	-0.363766
2.99333	58.847	-0.363574
2.99500	58.864	-0.363396
2.99667	58.879	-0.363253
2.99833	58.896	-0.363127
3.00000	58.913	-0.363012
3.00167	58.930	-0.362929
3.00333	58.946	-0.362804
3.00500	58.963	-0.362629
3.00667	58.980	-0.362410
3.00833	58.996	-0.362183
3.01000	59.013	-0.361984
3.01167	59.030	-0.361829
3.01333	59.047	-0.361715
3.01500	59.064	-0.361583
3.01667	59.079	-0.361484
3.01833	59.097	-0.361357
3.02000	59.114	-0.361303
3.02167	59.130	-0.361266
3.02333	59.147	-0.361139
3.02500	59.163	-0.361028
3.02667	59.180	-0.360993
3.02833	59.196	-0.360958
3.03000	59.214	-0.360917
3.03167	59.230	-0.360803
3.03333	59.247	-0.360532
3.03500	59.263	-0.360192
3.03667	59.280	-0.359767
3.03833	59.297	-0.359504
3.04000	59.314	-0.359319
3.04167	59.330	-0.359200
3.04333	59.347	-0.359111
3.04500	59.363	-0.359019
3.04667	59.381	-0.358979
3.04833	59.398	-0.358892
3.05000	59.413	-0.358783
3.05167	59.431	-0.358676
3.05333	59.447	-0.358643
3.05500	59.463	-0.358607
3.05667	59.481	-0.358567
3.05833	59.496	-0.358533
3.06000	59.515	-0.358498
3.06167	59.531	-0.358463
3.06333	59.548	-0.358411
3.06500	59.564	-0.358346
3.06667	59.580	-0.358302
3.06833	59.597	-0.358259
3.07000	59.614	-0.358219
3.07167	59.631	-0.358169
3.07333	59.647	-0.358104
3.07500	59.664	-0.357979
3.07667	59.681	-0.357867
3.07833	59.697	-0.357755
3.08000	59.715	-0.357676
3.08167	59.730	-0.357506
3.08333	59.747	-0.357379
3.08500	59.763	-0.357285
3.08667	59.781	-0.357246
3.08833	59.797	-0.357208
3.09000	59.814	-0.357165
3.09167	59.830	-0.357106
3.09333	59.848	-0.357018
3.09500	59.864	-0.356937
3.09667	59.881	-0.356877
3.09833	59.898	-0.356801
3.10000	59.915	-0.356694
3.10167	59.931	-0.356600
3.10333	59.947	-0.356525
3.10500	59.964	-0.356482
3.10667	59.981	-0.356445
3.10833	59.998	-0.356398
3.11000	60.015	-0.356364
3.11167	60.031	-0.356329
3.11333	60.047	-0.356289
3.11500	60.065	-0.356251
3.11667	60.081	-0.356208
3.11833	60.097	-0.356165
3.12000	60.115	-0.356120
3.12167	60.130	-0.356068
3.12333	60.148	-0.356025
3.12500	60.165	-0.355982
3.12667	60.182	-0.355928
3.12833	60.199	-0.355881
3.13000	60.215	-0.355841
3.13167	60.231	-0.355793
3.13333	60.248	-0.355746
3.13500	60.265	-0.355701
3.13667	60.281	-0.355660
3.13833	60.298	-0.355620
3.14000	60.314	-0.355577
3.14167	60.331	-0.355541
3.14333	60.348	-0.355507
3.14500	60.365	-0.355472
3.14667	60.382	-0.355436
3.14833	60.399	-0.355400
3.15000	60.415	-0.355360
3.15167	60.432	-0.355316
3.15333	60.448	-0.355272
3.15500	60.464	-0.355228
3.15667	60.482	-0.355182
3.15833	60.498	-0.355134
3.16000	60.515	-0.355087
3.16167	60.532	-0.355043
3.16333	60.548	-0.355005
3.16500	60.565	-0.354968
3.16667	60.581	-0.354933
3.16833	60.598	-0.354896
3.17000	60.615	-0.354858
3.17167	60.631	-0.354818
3.17333	60.648	-0.354777
3.17500	60.665	-0.354733
3.17667	60.681	-0.354687
3.17833	60.698	-0.354639
3.18000	60.715	-0.354593
3.18167	60.732	-0.354548
3.18333	60.749	-0.354500
3.18500	60.765	-0.354457
3.18667	60.782	-0.354417
3.18833	60.799	-0.354379
3.19000	60.815	-0.354347
3.19167	60.830	-0.354317
3.19333	60.848	-0.354292
3.19500	60.865	-0.354265
3.19667	60.882	-0.354241
3.19833	60.897	-0.354219
3.20000	60.914	-0.354200
3.20167	60.931	-0.354178
3.20333	60.949	-0.354150
3.20500	60.965	-0.354116
3.20667	60.981	-0.354079
3.20833	60.998	-0.354043
3.21000	61.015	-0.354006
3.21167	61.031	-0.353970
3.21333	61.048	-0.353933
3.21500	61.065	-0.353895
3.21667	61.082	-0.353861
3.21833	61.098	-0.353835
3.22000	61.116	-0.353810
3.22167	61.131	-0.353790
3.22333	61.147	-0.353770
3.22500	61.164	-0.353744
3.22667	61.180	-0.353718
3.22833	61.197	-0.353685
3.23000	61.215	-0.353653
3.23167	61.231	-0.353624
3.23333	61.248	-0.353596
3.23500	61.265	-0.353576
3.23667	61.281	-0.353562
3.23833	61.298	-0.353549
3.24000	61.315	-0.353538
3.24167	61.332	-0.353528
3.24333	61.348	-0.353517
3.24500	61.365	-0.353508
3.24667	61.383	-0.353491
3.24833	61.399	-0.353468
3.25000	61.415	-0.353440
3.25167	61.431	-0.353410
3.25333	61.449	-0.353387
3.25500	61.464	-0.353372
3.25667	61.482	-0.353360
3.25833	61.497	-0.353349
3.26000	61.514	-0.353340
3.26167	61.531	-0.353328
3.26333	61.548	-0.353319
3.26500	61.564	-0.353309
3.26667	61.581	-0.353299
3.26833	61.597	-0.353286
3.27000	61.615	-0.353272
3.27167	61.631	-0.353256
3.27333	61.649	-0.353245
3.27500	61.665	-0.353238
3.27667	61.682	-0.353236
3.27833	61.699	-0.353232
3.28000	61.715	-0.353228
3.28167	61.732	-0.353219
3.28333	61.748	-0.353206
3.28500	61.765	-0.353198
3.28667	61.781	-0.353192
3.28833	61.799	-0.353186
3.29000	61.815	-0.353179
3.29167	61.832	-0.353172
3.29333	61.848	-0.353170
3.29500	61.865	-0.353171
3.29667	61.881	-0.353168
3.29833	61.898	-0.353159
3.30000	61.915	-0.353147
3.30167	61.931	-0.353139
3.30333	61.948	-0.353132
3.30500	61.966	-0.353129
3.30667	61.982	-0.353139
3.30833	61.998	-0.353152
3.31000	62.015	-0.353164
3.31167	62.032	-0.353199
3.31333	62.049	-0.353238
3.31500	62.066	-0.353265
3.31667	62.081	-0.353278
3.31833	62.099	-0.353292
3.32000	62.115	-0.353311
3.32167	62.131	-0.353320
3.32333	62.148	-0.353330
3.32500	62.164	-0.353365
3.32667	62.181	-0.353414
3.32833	62.198	-0.353454
3.33000	62.214	-0.353508
3.33167	62.231	-0.353582
3.33333	62.247	-0.353636
3.33500	62.264	-0.353671
3.33667	62.281	-0.353707
3.33833	62.298	-0.353754
3.34000	62.315	-0.353808
3.34167	62.331	-0.353837
3.34333	62.347	-0.353899
3.34500	62.364	-0.353953
3.34667	62.382	-0.354002
3.34833	62.398	-0.354032
3.35000	62.416	-0.354054
3.35167	62.432	-0.354097
3.35333	62.448	-0.354120
3.35500	62.465	-0.354154
3.35667	62.483	-0.354189
3.35833	62.499	-0.354247
3.36000	62.516	-0.354270
3.36167	62.532	-0.354293
3.36333	62.549	-0.354314
3.36500	62.564	-0.354337
3.36667	62.582	-0.354361
3.36833	62.598	-0.354396
3.37000	62.616	-0.354507
3.37167	62.632	-0.354677
3.37333	62.649	-0.354920
3.37500	62.665	-0.355287
3.37667	62.682	-0.355568
3.37833	62.697	-0.355728
3.38000	62.715	-0.355807
3.38167	62.732	-0.355834
3.38333	62.748	-0.355861
3.38500	62.765	-0.355879
3.38667	62.782	-0.355892
3.38833	62.799	-0.355905
3.39000	62.815	-0.355921
3.39167	62.832	-0.355947
3.39333	62.849	-0.356008
3.39500	62.866	-0.356117
3.39667	62.882	-0.356235
3.39833	62.898	-0.356372
3.40000	62.915	-0.356556
3.40167	62.932	-0.356660
3.40333	62.948	-0.356765
3.40500	62.965	-0.356832
3.40667	62.983	-0.356862
3.40833	62.998	-0.356892
3.41000	63.016	-0.356925
3.41167	63.032	-0.356961
3.41333	63.049	-0.357006
3.41500	63.064	-0.357047
3.41667	63.082	-0.357077
3.41833	63.099	-0.357109
3.42000	63.116	-0.357157
3.42167	63.132	-0.357203
3.42333	63.149	-0.357298
3.42500	63.166	-0.357358
3.42667	63.182	-0.357406
3.42833	63.200	-0.357442
3.43000	63.215	-0.357512
3.43167	63.232	-0.357630
3.43333	63.249	-0.357739
3.43500	63.265	-0.357821
3.43667	63.282	-0.357914
3.43833	63.299	-0.357979
3.44000	63.315	-0.358053
3.44167	63.332	-0.358149
3.44333	63.349	-0.358228
3.44500	63.365	-0.358331
3.44667	63.382	-0.358499
3.44833	63.398	-0.358680
3.45000	63.415	-0.358850
3.45167	63.430	-0.359020
3.45333	63.448	-0.359198
3.45500	63.465	-0.359348
3.45667	63.482	-0.359476
3.45833	63.499	-0.359581
3.46000	63.515	-0.359646
3.46167	63.532	-0.359706
3.46333	63.549	-0.359829
3.46500	63.565	-0.359987
3.46667	63.582	-0.360166
3.46833	63.599	-0.360310
3.47000	63.615	-0.360414
3.47167	63.632	-0.360500
3.47333	63.649	-0.360563
3.47500	63.666	-0.360611
3.47667	63.683	-0.360658
3.47833	63.699	-0.360705
3.48000	63.716	-0.360802
3.48167	63.733	-0.360912
3.48333	63.750	-0.361063
3.48500	63.766	-0.361323
3.48667	63.783	-0.361550
3.48833	63.799	-0.361698
3.49000	63.816	-0.361823
3.49167	63.833	-0.361898
3.49333	63.850	-0.361954
3.49500	63.865	-0.362006
3.49667	63.883	-0.362049
3.49833	63.899	-0.362139
3.50000	63.917	-0.362205
3.50167	63.933	-0.362318
3.50333	63.950	-0.362460
3.50500	63.967	-0.362610
3.50667	63.983	-0.362809
3.50833	63.999	-0.363070
3.51000	64.017	-0.363221
3.51167	64.032	-0.363373
3.51333	64.049	-0.363465
3.51500	64.066	-0.363590
3.51667	64.083	-0.363723
3.51833	64.100	-0.363832
3.52000	64.116	-0.363968
3.52167	64.133	-0.364091
3.52333	64.150	-0.364210
3.52500	64.166	-0.364414
3.52667	64.182	-0.364781
3.52833	64.199	-0.365108
3.53000	64.217	-0.365499
3.53167	64.233	-0.365806
3.53333	64.249	-0.366025
3.53500	64.266	-0.366205
3.53667	64.283	-0.366392
3.53833	64.300	-0.366519
3.54000	64.316	-0.366634
3.54167	64.333	-0.366748
3.54333	64.350	-0.366842
3.54500	64.366	-0.366902
3.54667	64.383	-0.366943
3.54833	64.399	-0.366988
3.55000	64.416	-0.367051
3.55167	64.432	-0.367107
3.55333	64.449	-0.367214
3.55500	64.466	-0.367384
3.55667	64.483	-0.367540
3.55833	64.500	-0.367725
3.56000	64.517	-0.367936
3.56167	64.533	-0.368072
3.56333	64.549	-0.368183
3.56500	64.565	-0.368224
3.56667	64.582	-0.368281
3.56833	64.599	-0.368362
3.57000	64.616	-0.368447
3.57167	64.633	-0.368697
3.57333	64.650	-0.369028
3.57500	64.666	-0.369462
3.57667	64.683	-0.369856
3.57833	64.699	-0.370338
3.58000	64.716	-0.370714
3.58167	64.732	-0.370935
3.58333	64.749	-0.371045
3.58500	64.766	-0.371151
3.58667	64.782	-0.371227
3.58833	64.799	-0.371282
3.59000	64.816	-0.371329
3.59167	64.832	-0.371402
3.59333	64.849	-0.371490
3.59500	64.865	-0.371587
3.59667	64.882	-0.371732
3.59833	64.900	-0.371979
3.60000	64.916	-0.372320
3.60167	64.932	-0.372638
3.60333	64.948	-0.372974
3.60500	64.966	-0.373269
3.60667	64.983	-0.373473
3.60833	64.999	-0.373583
3.61000	65.017	-0.373682
3.61167	65.033	-0.373753
3.61333	65.049	-0.373857
3.61500	65.066	-0.374002
3.61667	65.082	-0.374147
3.61833	65.099	-0.374286
3.62000	65.115	-0.374494
3.62167	65.131	-0.374757
3.62333	65.148	-0.375015
3.62500	65.165	-0.375228
3.62667	65.182	-0.375356
3.62833	65.198	-0.375501
3.63000	65.215	-0.375660
3.63167	65.232	-0.375836
3.63333	65.248	-0.376099
3.63500	65.265	-0.376339
3.63667	65.282	-0.376503
3.63833	65.298	-0.376678
3.64000	65.315	-0.376896
3.64167	65.332	-0.377125
3.64333	65.348	-0.377283
3.64500	65.365	-0.377418
3.64667	65.381	-0.377520
3.64833	65.399	-0.377647
3.65000	65.415	-0.377788
3.65167	65.432	-0.377987
3.65333	65.449	-0.378250
3.65500	65.466	-0.378481
3.65667	65.482	-0.378708
3.65833	65.499	-0.378826
3.66000	65.516	-0.378933
3.66167	65.532	-0.378992
3.66333	65.549	-0.379073
3.66500	65.566	-0.379147
3.66667	65.583	-0.379325
3.66833	65.599	-0.379497
3.67000	65.615	-0.379630
3.67167	65.632	-0.379831
3.67333	65.649	-0.380088
3.67500	65.666	-0.380264
3.67667	65.682	-0.380431
3.67833	65.699	-0.380591
3.68000	65.716	-0.380669
3.68167	65.731	-0.380732
3.68333	65.748	-0.380840
3.68500	65.766	-0.380989
3.68667	65.783	-0.381175
3.68833	65.798	-0.381353
3.69000	65.816	-0.381581
3.69167	65.832	-0.381791
3.69333	65.849	-0.382013
3.69500	65.865	-0.382345
3.69667	65.882	-0.382696
3.69833	65.898	-0.383013
3.70000	65.914	-0.383280
3.70167	65.932	-0.383615
3.70333	65.949	-0.383848
3.70500	65.966	-0.384044
3.70667	65.982	-0.384199
3.70833	65.999	-0.384342
3.71000	66.015	-0.384430
3.71167	66.032	-0.384491
3.71333	66.048	-0.384588
3.71500	66.066	-0.384791
3.71667	66.083	-0.385055
3.71833	66.099	-0.385282
3.72000	66.115	-0.385569
3.72167	66.132	-0.385777
3.72333	66.148	-0.385915
3.72500	66.165	-0.385952
3.72667	66.182	-0.386006
3.72833	66.198	-0.386166
3.73000	66.216	-0.386280
3.73167	66.232	-0.386312
3.73333	66.249	-0.386347
3.73500	66.266	-0.386422
3.73667	66.283	-0.386502
3.73833	66.299	-0.386658
3.74000	66.316	-0.386842
3.74167	66.333	-0.387062
3.74333	66.348	-0.387280
3.74500	66.366	-0.387482
3.74667	66.382	-0.387742
3.74833	66.399	-0.387963
3.75000	66.416	-0.388219
3.75167	66.433	-0.388368
3.75333	66.448	-0.388445
3.75500	66.466	-0.388495
3.75667	66.483	-0.388528
3.75833	66.498	-0.388630
3.76000	66.516	-0.388662
3.76167	66.533	-0.388704
3.76333	66.549	-0.388737
3.76500	66.565	-0.388783
3.76667	66.582	-0.388882
3.76833	66.599	-0.389059
3.77000	66.616	-0.389208
3.77167	66.632	-0.389377
3.77333	66.649	-0.389528
3.77500	66.666	-0.389613
3.77667	66.682	-0.389744
3.77833	66.699	-0.389881
3.78000	66.715	-0.390048
3.78167	66.733	-0.390195
3.78333	66.749	-0.390343
3.78500	66.766	-0.390473
3.78667	66.782	-0.390592
3.78833	66.799	-0.390682
3.79000	66.815	-0.390829
3.79167	66.831	-0.391038
3.79333	66.848	-0.391222
3.79500	66.866	-0.391369
3.79667	66.881	-0.391531
3.79833	66.899	-0.391675
3.80000	66.915	-0.391797
3.80167	66.933	-0.391861
3.80333	66.948	-0.391900
3.80500	66.966	-0.391994
3.80667	66.983	-0.392076
3.80833	66.999	-0.392171
3.81000	67.016	-0.392205
3.81167	67.033	-0.392242
3.81333	67.049	-0.392279
3.81500	67.066	-0.392315
3.81667	67.082	-0.392385
3.81833	67.099	-0.392467
3.82000	67.116	-0.392599
3.82167	67.132	-0.392689
3.82333	67.149	-0.392746
3.82500	67.165	-0.392840
3.82667	67.182	-0.393055
3.82833	67.199	-0.393314
3.83000	67.216	-0.393544
3.83167	67.232	-0.393670
3.83333	67.250	-0.393722
3.83500	67.266	-0.393785
3.83667	67.282	-0.393863
3.83833	67.299	-0.394020
3.84000	67.316	-0.394132
3.84167	67.331	-0.394174
3.84333	67.349	-0.394214
3.84500	67.366	-0.394282
3.84667	67.382	-0.394391
3.84833	67.400	-0.394506
3.85000	67.416	-0.394728
3.85167	67.433	-0.394869
3.85333	67.449	-0.395150
3.85500	67.466	-0.395511
3.85667	67.482	-0.395922
3.85833	67.499	-0.396347
3.86000	67.516	-0.396569
3.86167	67.532	-0.396769
3.86333	67.549	-0.396852
3.86500	67.566	-0.396919
3.86667	67.583	-0.397032
3.86833	67.599	-0.397070
3.87000	67.616	-0.397107
3.87167	67.633	-0.397144
3.87333	67.650	-0.397181
3.87500	67.667	-0.397221
3.87667	67.683	-0.397308
3.87833	67.699	-0.397411
3.88000	67.715	-0.397561
3.88167	67.732	-0.397717
3.88333	67.749	-0.397859
3.88500	67.765	-0.397928
3.88667	67.783	-0.398039
3.88833	67.800	-0.398145
3.89000	67.815	-0.398225
3.89167	67.833	-0.398291
3.89333	67.849	-0.398359
3.89500	67.867	-0.398402
3.89667	67.883	-0.398462
3.89833	67.899	-0.398558
3.90000	67.916	-0.398665
3.90167	67.933	-0.398777
3.90333	67.949	-0.398894
3.90500	67.966	-0.398973
3.90667	67.983	-0.399049
3.90833	67.999	-0.399116
3.91000	68.016	-0.399162
3.91167	68.032	-0.399243
3.91333	68.049	-0.399311
3.91500	68.066	-0.399357
3.91667	68.083	-0.399410
3.91833	68.100	-0.399468
3.92000	68.116	-0.399587
3.92167	68.133	-0.399808
3.92333	68.149	-0.399965
3.92500	68.167	-0.400050
3.92667	68.184	-0.400097
3.92833	68.200	-0.400143
3.93000	68.216	-0.400188
3.93167	68.233	-0.400232
3.93333	68.250	-0.400314
3.93500	68.266	-0.400359
3.93667	68.283	-0.400425
3.93833	68.300	-0.400468
3.94000	68.317	-0.400513
3.94167	68.334	-0.400559
3.94333	68.349	-0.400622
3.94500	68.366	-0.400670
3.94667	68.383	-0.400744
3.94833	68.399	-0.400846
3.95000	68.416	-0.400976
3.95167	68.433	-0.401104
3.95333	68.450	-0.401219
3.95500	68.467	-0.401311
3.95667	68.483	-0.401410
3.95833	68.500	-0.401480
3.96000	68.517	-0.401530
3.96167	68.533	-0.401579
3.96333	68.551	-0.401625
3.96500	68.567	-0.401673
3.96667	68.583	-0.401723
3.96833	68.600	-0.401774
3.97000	68.616	-0.401822
3.97167	68.632	-0.401875
3.97333	68.649	-0.401927
3.97500	68.667	-0.401984
3.97667	68.683	-0.402035
3.97833	68.699	-0.402125
3.98000	68.717	-0.402190
3.98167	68.733	-0.402241
3.98333	68.751	-0.402292
3.98500	68.767	-0.402342
3.98667	68.783	-0.402397
3.98833	68.800	-0.402488
3.99000	68.817	-0.402584
3.99167	68.832	-0.402704
3.99333	68.850	-0.402820
3.99500	68.866	-0.402877
3.99667	68.884	-0.402953
3.99833	68.900	-0.403005
4.00000	68.917	-0.403056
4.00167	68.934	-0.403107
4.00333	68.950	-0.403157
4.00500	68.967	-0.403207
4.00667	68.983	-0.403279
4.00833	69.000	-0.403327
4.01000	69.017	-0.403380
4.01167	69.033	-0.403435
4.01333	69.051	-0.403507
4.01500	69.067	-0.403579
4.01667	69.084	-0.403634
4.01833	69.100	-0.403686
4.02000	69.116	-0.403738
4.02167	69.134	-0.403811
4.02333	69.150	-0.403891
4.02500	69.167	-0.403943
4.02667	69.184	-0.403995
4.02833	69.200	-0.404048
4.03000	69.217	-0.404137
4.03167	69.233	-0.404257
4.03333	69.250	-0.404325
4.03500	69.266	-0.404380
4.03667	69.283	-0.404434
4.03833	69.301	-0.404487
4.04000	69.317	-0.404537
4.04167	69.334	-0.404588
4.04333	69.350	-0.404631
4.04500	69.368	-0.404675
4.04667	69.384	-0.404721
4.04833	69.400	-0.404771
4.05000	69.418	-0.404825
4.05167	69.435	-0.404879
4.05333	69.451	-0.404927
4.05500	69.467	-0.404977
4.05667	69.484	-0.405027
4.05833	69.501	-0.405080
4.06000	69.518	-0.405134
4.06167	69.534	-0.405190
4.06333	69.550	-0.405253
4.06500	69.567	-0.405406
4.06667	69.584	-0.405567
4.06833	69.601	-0.405707
4.07000	69.617	-0.405825
4.07167	69.634	-0.405882
4.07333	69.651	-0.405936
4.07500	69.669	-0.405978
4.07667	69.684	-0.406019
4.07833	69.701	-0.406057
4.08000	69.717	-0.406095
4.08167	69.734	-0.406137
4.08333	69.750	-0.406185
4.08500	69.767	-0.406234
4.08667	69.783	-0.406279
4.08833	69.801	-0.406324
4.09000	69.817	-0.406372
4.09167	69.833	-0.406422
4.09333	69.851	-0.406476
4.09500	69.867	-0.406555
4.09667	69.884	-0.406656
4.09833	69.901	-0.406725
4.10000	69.918	-0.406791
4.10167	69.935	-0.406846
4.10333	69.951	-0.406921
4.10500	69.967	-0.406975
4.10667	69.985	-0.407023
4.10833	70.001	-0.407073
4.11000	70.018	-0.407124
4.11167	70.034	-0.407177
4.11333	70.051	-0.407232
4.11500	70.067	-0.407287
4.11667	70.084	-0.407341
4.11833	70.101	-0.407397
4.12000	70.117	-0.407474
4.12167	70.134	-0.407555
4.12333	70.151	-0.407612
4.12500	70.167	-0.407664
4.12667	70.184	-0.407716
4.12833	70.202	-0.407769
4.13000	70.217	-0.407823
4.13167	70.234	-0.407876
4.13333	70.251	-0.407924
4.13500	70.268	-0.407971
4.13667	70.284	-0.408024
4.13833	70.301	-0.408079
4.14000	70.318	-0.408148
4.14167	70.335	-0.408202
4.14333	70.352	-0.408249
4.14500	70.368	-0.408289
4.14667	70.385	-0.408331
4.14833	70.402	-0.408377
4.15000	70.418	-0.408426
4.15167	70.435	-0.408471
4.15333	70.452	-0.408516
4.15500	70.469	-0.408563
4.15667	70.485	-0.408610
4.15833	70.500	-0.408660
4.16000	70.518	-0.408711
4.16167	70.534	-0.408763
4.16333	70.551	-0.408810
4.16500	70.568	-0.408858
4.16667	70.584	-0.408908
4.16833	70.601	-0.408954
4.17000	70.618	-0.408995
4.17167	70.635	-0.409037
4.17333	70.652	-0.409074
4.17500	70.668	-0.409110
4.17667	70.685	-0.409150
4.17833	70.701	-0.409196
4.18000	70.717	-0.409253
4.18167	70.735	-0.409388
4.18333	70.752	-0.409523
4.18500	70.769	-0.409672
4.18667	70.785	-0.409757
4.18833	70.802	-0.409809
4.19000	70.819	-0.409857
4.19167	70.836	-0.409899
4.19333	70.852	-0.409934
4.19500	70.869	-0.409966
4.19667	70.886	-0.409996
4.19833	70.902	-0.410032
4.20000	70.919	-0.410075
4.20167	70.936	-0.410121
4.20333	70.952	-0.410172
4.20500	70.968	-0.410223
4.20667	70.986	-0.410290
4.20833	71.002	-0.410347
4.21000	71.019	-0.410397
4.21167	71.036	-0.410449
4.21333	71.053	-0.410491
4.21500	71.069	-0.410527
4.21667	71.086	-0.410558
4.21833	71.103	-0.410589
4.22000	71.119	-0.410623
4.22167	71.135	-0.410656
4.22333	71.152	-0.410688
4.22500	71.168	-0.410725
4.22667	71.186	-0.410762
4.22833	71.202	-0.410804
4.23000	71.219	-0.410846
4.23167	71.236	-0.410891
4.23333	71.252	-0.410937
4.23500	71.270	-0.410982
4.23667	71.286	-0.411027
4.23833	71.302	-0.411073
4.24000	71.319	-0.411119
4.24167	71.336	-0.411165
4.24333	71.353	-0.411220
4.24500	71.369	-0.411283
4.24667	71.386	-0.411380
4.24833	71.403	-0.411452
4.25000	71.420	-0.411512
4.25167	71.437	-0.411561
4.25333	71.454	-0.411607
4.25500	71.470	-0.411652
4.25667	71.486	-0.411700
4.25833	71.503	-0.411747
4.26000	71.520	-0.411794
4.26167	71.535	-0.411844
4.26333	71.553	-0.411922
4.26500	71.570	-0.412001
4.26667	71.587	-0.412052
4.26833	71.604	-0.412099
4.27000	71.620	-0.412139
4.27167	71.637	-0.412180
4.27333	71.654	-0.412223
4.27500	71.670	-0.412268
4.27667	71.687	-0.412314
4.27833	71.702	-0.412357
4.28000	71.719	-0.412403
4.28167	71.736	-0.412450
4.28333	71.753	-0.412501
4.28500	71.771	-0.412550
4.28667	71.787	-0.412594
4.28833	71.804	-0.412635
4.29000	71.820	-0.412677
4.29167	71.837	-0.412723
4.29333	71.854	-0.412792
4.29500	71.870	-0.412874
4.29667	71.887	-0.412929
4.29833	71.904	-0.412976
4.30000	71.920	-0.413018
4.30167	71.937	-0.413058
4.30333	71.954	-0.413091
4.30500	71.971	-0.413128
4.30667	71.988	-0.413163
4.30833	72.004	-0.413197
4.31000	72.020	-0.413233
4.31167	72.037	-0.413272
4.31333	72.055	-0.413313
4.31500	72.071	-0.413351
4.31667	72.087	-0.413390
4.31833	72.104	-0.413428
4.32000	72.120	-0.413464
4.32167	72.137	-0.413494
4.32333	72.153	-0.413529
4.32500	72.169	-0.413567
4.32667	72.187	-0.413605
4.32833	72.204	-0.413645
4.33000	72.220	-0.413688
4.33167	72.237	-0.413732
4.33333	72.254	-0.413772
4.33500	72.270	-0.413810
4.33667	72.288	-0.413846
4.33833	72.304	-0.413883
4.34000	72.321	-0.413919
4.34167	72.337	-0.413959
4.34333	72.354	-0.414002
4.34500	72.371	-0.414044
4.34667	72.388	-0.414085
4.34833	72.403	-0.414128
4.35000	72.421	-0.414174
4.35167	72.438	-0.414246
4.35333	72.455	-0.414301
4.35500	72.471	-0.414349
4.35667	72.487	-0.414394
4.35833	72.504	-0.414437
4.36000	72.521	-0.414479
4.36167	72.536	-0.414516
4.36333	72.554	-0.414555
4.36500	72.570	-0.414592
4.36667	72.588	-0.414624
4.36833	72.605	-0.414656
4.37000	72.621	-0.414691
4.37167	72.638	-0.414724
4.37333	72.655	-0.414758
4.37500	72.670	-0.414790
4.37667	72.687	-0.414820
4.37833	72.704	-0.414852
4.38000	72.720	-0.414881
4.38167	72.736	-0.414917
4.38333	72.753	-0.414958
4.38500	72.770	-0.415004
4.38667	72.787	-0.415049
4.38833	72.803	-0.415091
4.39000	72.821	-0.415132
4.39167	72.837	-0.415172
4.39333	72.854	-0.415208
4.39500	72.871	-0.415244
4.39667	72.889	-0.415282
4.39833	72.905	-0.415316
4.40000	72.922	-0.415348
4.40167	72.938	-0.415384
4.40333	72.955	-0.415417
4.40500	72.972	-0.415450
4.40667	72.988	-0.415483
4.40833	73.004	-0.415521
4.41000	73.022	-0.415556
4.41167	73.037	-0.415589
4.41333	73.054	-0.415625
4.41500	73.072	-0.415662
4.41667	73.089	-0.415698
4.41833	73.104	-0.415732
4.42000	73.122	-0.415767
4.42167	73.138	-0.415798
4.42333	73.155	-0.415826
4.42500	73.172	-0.415856
4.42667	73.188	-0.415890
4.42833	73.204	-0.415923
4.43000	73.222	-0.415959
4.43167	73.238	-0.415998
4.43333	73.254	-0.416040
4.43500	73.271	-0.416081
4.43667	73.288	-0.416122
4.43833	73.304	-0.416164
4.44000	73.321	-0.416206
4.44167	73.337	-0.416246
4.44333	73.354	-0.416283
4.44500	73.371	-0.416320
4.44667	73.388	-0.416352
4.44833	73.406	-0.416378
4.45000	73.423	-0.416401
4.45167	73.438	-0.416423
4.45333	73.455	-0.416442
4.45500	73.471	-0.416461
4.45667	73.488	-0.416485
4.45833	73.504	-0.416511
4.46000	73.521	-0.416542
4.46167	73.539	-0.416575
4.46333	73.555	-0.416616
4.46500	73.571	-0.416677
4.46667	73.589	-0.416766
4.46833	73.606	-0.416876
4.47000	73.621	-0.417002
4.47167	73.639	-0.417079
4.47333	73.655	-0.417133
4.47500	73.672	-0.417174
4.47667	73.688	-0.417209
4.47833	73.706	-0.417245
4.48000	73.722	-0.417275
4.48167	73.739	-0.417304
4.48333	73.756	-0.417335
4.48500	73.772	-0.417365
4.48667	73.788	-0.417396
4.48833	73.806	-0.417430
4.49000	73.822	-0.417466
4.49167	73.838	-0.417501
4.49333	73.855	-0.417536
4.49500	73.871	-0.417571
4.49667	73.888	-0.417605
4.49833	73.905	-0.417637
4.50000	73.922	-0.417666
4.50167	73.940	-0.417691
4.50333	73.957	-0.417716
4.50500	73.973	-0.417744
4.50667	73.989	-0.417775
4.50833	74.006	-0.417808
4.51000	74.022	-0.417841
4.51167	74.040	-0.417874
4.51333	74.056	-0.417908
4.51500	74.073	-0.417943
4.51667	74.090	-0.417981
4.51833	74.107	-0.418018
4.52000	74.122	-0.418050
4.52167	74.140	-0.418076
4.52333	74.156	-0.418104
4.52500	74.173	-0.418133
4.52667	74.189	-0.418159
4.52833	74.206	-0.418184
4.53000	74.222	-0.418206
4.53167	74.239	-0.418230
4.53333	74.257	-0.418248
4.53500	74.273	-0.418269
4.53667	74.290	-0.418291
4.53833	74.306	-0.418316
4.54000	74.323	-0.418341
4.54167	74.341	-0.418371
4.54333	74.357	-0.418401
4.54500	74.373	-0.418435
4.54667	74.389	-0.418467
4.54833	74.406	-0.418498
4.55000	74.422	-0.418534
4.55167	74.440	-0.418572
4.55333	74.456	-0.418607
4.55500	74.473	-0.418636
4.55667	74.490	-0.418665
4.55833	74.507	-0.418690
4.56000	74.524	-0.418712
4.56167	74.540	-0.418734
4.56333	74.557	-0.418757
4.56500	74.572	-0.418779
4.56667	74.590	-0.418799
4.56833	74.606	-0.418820
4.57000	74.622	-0.418846
4.57167	74.639	-0.418873
4.57333	74.655	-0.418896
4.57500	74.673	-0.418917
4.57667	74.689	-0.418936
4.57833	74.707	-0.418953
4.58000	74.723	-0.418972
4.58167	74.740	-0.418990
4.58333	74.756	-0.419007
4.58500	74.773	-0.419026
4.58667	74.790	-0.419042
4.58833	74.807	-0.419062
4.59000	74.824	-0.419083
4.59167	74.840	-0.419106
4.59333	74.857	-0.419130
4.59500	74.874	-0.419155
4.59667	74.891	-0.419181
4.59833	74.906	-0.419210
4.60000	74.924	-0.419238
4.60167	74.940	-0.419265
4.60333	74.957	-0.419292
4.60500	74.973	-0.419313
4.60667	74.990	-0.419331
4.60833	75.007	-0.419348
4.61000	75.023	-0.419369
4.61167	75.040	-0.419392
4.61333	75.056	-0.419415
4.61500	75.073	-0.419437
4.61667	75.090	-0.419460
4.61833	75.107	-0.419485
4.62000	75.123	-0.419511
4.62167	75.140	-0.419539
4.62333	75.157	-0.419573
4.62500	75.173	-0.419615
4.62667	75.190	-0.419650
4.62833	75.206	-0.419688
4.63000	75.224	-0.419753
4.63167	75.240	-0.419788
4.63333	75.256	-0.419821
4.63500	75.273	-0.419853
4.63667	75.290	-0.419885
4.63833	75.307	-0.419917
4.64000	75.324	-0.419949
4.64167	75.340	-0.419984
4.64333	75.357	-0.420035
4.64500	75.374	-0.420072
4.64667	75.391	-0.420106
4.64833	75.408	-0.420136
4.65000	75.424	-0.420164
4.65167	75.441	-0.420192
4.65333	75.457	-0.420216
4.65500	75.474	-0.420244
4.65667	75.490	-0.420272
4.65833	75.507	-0.420294
4.66000	75.524	-0.420312
4.66167	75.540	-0.420327
4.66333	75.557	-0.420345
4.66500	75.575	-0.420361
4.66667	75.590	-0.420375
4.66833	75.608	-0.420392
4.67000	75.623	-0.420413
4.67167	75.640	-0.420437
4.67333	75.657	-0.420472
4.67500	75.673	-0.420585
4.67667	75.690	-0.420691
4.67833	75.707	-0.420760
4.68000	75.724	-0.420793
4.68167	75.741	-0.420823
4.68333	75.757	-0.420851
4.68500	75.774	-0.420874
4.68667	75.790	-0.420899
4.68833	75.807	-0.420920
4.69000	75.824	-0.420937
4.69167	75.841	-0.420951
4.69333	75.857	-0.420970
4.69500	75.874	-0.420992
4.69667	75.890	-0.421014
4.69833	75.908	-0.421037
4.70000	75.923	-0.421056
4.70167	75.940	-0.421081
4.70333	75.958	-0.421104
4.70500	75.974	-0.421123
4.70667	75.991	-0.421140
4.70833	76.008	-0.421156
4.71000	76.024	-0.421169
4.71167	76.041	-0.421184
4.71333	76.057	-0.421197
4.71500	76.075	-0.421215
4.71667	76.091	-0.421233
4.71833	76.107	-0.421252
4.72000	76.124	-0.421273
4.72167	76.141	-0.421294
4.72333	76.158	-0.421314
4.72500	76.174	-0.421336
4.72667	76.190	-0.421359
4.72833	76.207	-0.421385
4.73000	76.224	-0.421422
4.73167	76.241	-0.421451
4.73333	76.257	-0.421483
4.73500	76.274	-0.421511
4.73667	76.290	-0.421540
4.73833	76.307	-0.421567
4.74000	76.323	-0.421590
4.74167	76.340	-0.421607
4.74333	76.358	-0.421622
4.74500	76.373	-0.421636
4.74667	76.391	-0.421654
4.74833	76.407	-0.421676
4.75000	76.424	-0.421702
4.75167	76.441	-0.421730
4.75333	76.458	-0.421755
4.75500	76.473	-0.421782
4.75667	76.492	-0.421809
4.75833	76.507	-0.421836
4.76000	76.524	-0.421864
4.76167	76.541	-0.421893
4.76333	76.558	-0.421919
4.76500	76.575	-0.421946
4.76667	76.591	-0.421973
4.76833	76.608	-0.422004
4.77000	76.625	-0.422035
4.77167	76.641	-0.422065
4.77333	76.658	-0.422092
4.77500	76.675	-0.422117
4.77667	76.691	-0.422138
4.77833	76.708	-0.422160
4.78000	76.724	-0.422181
4.78167	76.741	-0.422205
4.78333	76.758	-0.422230
4.78500	76.774	-0.422260
4.78667	76.791	-0.422298
4.78833	76.808	-0.422331
4.79000	76.825	-0.422358
4.79167	76.841	-0.422381
4.79333	76.857	-0.422400
4.79500	76.874	-0.422419
4.79667	76.891	-0.422439
4.79833	76.908	-0.422454
4.80000	76.924	-0.422469
4.80167	76.941	-0.422485
4.80333	76.958	-0.422505
4.80500	76.974	-0.422530
4.80667	76.992	-0.422551
4.80833	77.009	-0.422571
4.81000	77.025	-0.422589
4.81167	77.042	-0.422605
4.81333	77.057	-0.422627
4.81500	77.075	-0.422649
4.81667	77.092	-0.422672
4.81833	77.108	-0.422693
4.82000	77.125	-0.422711
4.82167	77.142	-0.422734
4.82333	77.159	-0.422759
4.82500	77.175	-0.422783
4.82667	77.191	-0.422802
4.82833	77.209	-0.422820
4.83000	77.225	-0.422836
4.83167	77.242	-0.422858
4.83333	77.258	-0.422879
4.83500	77.275	-0.422903
4.83667	77.292	-0.422932
4.83833	77.308	-0.422958
4.84000	77.325	-0.422987
4.84167	77.342	-0.423016
4.84333	77.358	-0.423043
4.84500	77.375	-0.423069
4.84667	77.391	-0.423091
4.84833	77.409	-0.423108
4.85000	77.425	-0.423123
4.85167	77.442	-0.423142
4.85333	77.459	-0.423160
4.85500	77.476	-0.423180
4.85667	77.492	-0.423200
4.85833	77.509	-0.423219
4.86000	77.526	-0.423236
4.86167	77.543	-0.423254
4.86333	77.559	-0.423274
4.86500	77.575	-0.423294
4.86667	77.592	-0.423311
4.86833	77.608	-0.423321
4.87000	77.624	-0.423336
4.87167	77.642	-0.423344
4.87333	77.659	-0.423356
4.87500	77.675	-0.423373
4.87667	77.692	-0.423392
4.87833	77.709	-0.423408
4.88000	77.726	-0.423426
4.88167	77.743	-0.423450
4.88333	77.759	-0.423477
4.88500	77.775	-0.423504
4.88667	77.792	-0.423527
4.88833	77.809	-0.423550
4.89000	77.825	-0.423567
4.89167	77.843	-0.423587
4.89333	77.860	-0.423609
4.89500	77.876	-0.423631
4.89667	77.892	-0.423655
4.89833	77.909	-0.423680
4.90000	77.927	-0.423703
4.90167	77.943	-0.423725
4.90333	77.959	-0.423745
4.90500	77.976	-0.423765
4.90667	77.993	-0.423787
4.90833	78.009	-0.423808
4.91000	78.026	-0.423831
4.91167	78.044	-0.423853
4.91333	78.060	-0.423868
4.91500	78.076	-0.423884
4.91667	78.094	-0.423903
4.91833	78.110	-0.423922
4.92000	78.127	-0.423937
4.92167	78.143	-0.423951
4.92333	78.160	-0.423968
4.92500	78.177	-0.423986
4.92667	78.193	-0.424000
4.92833	78.209	-0.424015
4.93000	78.226	-0.424029
4.93167	78.243	-0.424040
4.93333	78.259	-0.424048
4.93500	78.276	-0.424059
4.93667	78.293	-0.424073
4.93833	78.309	-0.424087
4.94000	78.326	-0.424102
4.94167	78.343	-0.424123
4.94333	78.359	-0.424145
4.94500	78.376	-0.424170
4.94667	78.393	-0.424201
4.94833	78.410	-0.424229
4.95000	78.427	-0.424255
4.95167	78.444	-0.424280
4.95333	78.461	-0.424308
4.95500	78.477	-0.424333
4.95667	78.494	-0.424354
4.95833	78.511	-0.424369
4.96000	78.527	-0.424381
4.96167	78.543	-0.424390
4.96333	78.561	-0.424396
4.96500	78.577	-0.424404
4.96667	78.593	-0.424415
4.96833	78.611	-0.424422
4.97000	78.627	-0.424433
4.97167	78.644	-0.424451
4.97333	78.660	-0.424471
4.97500	78.677	-0.424494
4.97667	78.694	-0.424516
4.97833	78.711	-0.424536
4.98000	78.728	-0.424557
4.98167	78.744	-0.424579
4.98333	78.760	-0.424605
4.98500	78.777	-0.424630
4.98667	78.794	-0.424652
4.98833	78.811	-0.424674
4.99000	78.827	-0.424697
4.99167	78.845	-0.424720
4.99333	78.861	-0.424740
4.99500	78.877	-0.424756
4.99667	78.894	-0.424772
4.99833	78.911	-0.424789
5.00000	78.927	-0.424806
5.00167	78.943	-0.424826
5.00333	78.960	-0.424846
5.00500	78.978	-0.424866
5.00667	78.994	-0.424883
5.00833	79.011	-0.424900
5.01000	79.027	-0.424917
5.01167	79.045	-0.424933
5.01333	79.060	-0.424945
5.01500	79.078	-0.424956
5.01667	79.094	-0.424970
5.01833	79.111	-0.424979
5.02000	79.128	-0.424988
5.02167	79.144	-0.425000
5.02333	79.161	-0.425012
5.02500	79.178	-0.425024
5.02667	79.194	-0.425036
5.02833	79.210	-0.425049
5.03000	79.229	-0.425069
5.03167	79.246	-0.425095
5.03333	79.262	-0.425122
5.03500	79.278	-0.425174
5.03667	79.295	-0.425202
5.03833	79.312	-0.425225
5.04000	79.329	-0.425251
5.04167	79.345	-0.425270
5.04333	79.361	-0.425281
5.04500	79.379	-0.425292
5.04667	79.395	-0.425300
5.04833	79.413	-0.425305
5.05000	79.428	-0.425311
5.05167	79.445	-0.425319
5.05333	79.461	-0.425328
5.05500	79.479	-0.425338
5.05667	79.495	-0.425345
5.05833	79.512	-0.425353
5.06000	79.529	-0.425361
5.06167	79.545	-0.425366
5.06333	79.562	-0.425368
5.06500	79.579	-0.425372
5.06667	79.596	-0.425382
5.06833	79.613	-0.425398
5.07000	79.629	-0.425413
5.07167	79.645	-0.425432
5.07333	79.662	-0.425453
5.07500	79.678	-0.425475
5.07667	79.694	-0.425496
5.07833	79.711	-0.425518
5.08000	79.728	-0.425544
5.08167	79.745	-0.425567
5.08333	79.761	-0.425591
5.08500	79.777	-0.425614
5.08667	79.795	-0.425637
5.08833	79.812	-0.425661
5.09000	79.828	-0.425680
5.09167	79.845	-0.425697
5.09333	79.862	-0.425712
5.09500	79.879	-0.425727
5.09667	79.896	-0.425741
5.09833	79.912	-0.425754
5.10000	79.929	-0.425766
5.10167	79.946	-0.425779
5.10333	79.963	-0.425796
5.10500	79.979	-0.425820
5.10667	79.995	-0.425848
5.10833	80.013	-0.425873
5.11000	80.030	-0.425896
5.11167	80.047	-0.425915
5.11333	80.062	-0.425933
5.11500	80.078	-0.425948
5.11667	80.096	-0.425957
5.11833	80.112	-0.425963
5.12000	80.129	-0.425965
5.12167	80.146	-0.425970
5.12333	80.163	-0.425981
5.12500	80.179	-0.425992
5.12667	80.196	-0.426003
5.12833	80.213	-0.426012
5.13000	80.230	-0.426022
5.13167	80.246	-0.426031
5.13333	80.263	-0.426045
5.13500	80.279	-0.426056
5.13667	80.297	-0.426072
5.13833	80.313	-0.426088
5.14000	80.329	-0.426109
5.14167	80.346	-0.426125
5.14333	80.363	-0.426138
5.14500	80.378	-0.426148
5.14667	80.397	-0.426159
5.14833	80.413	-0.426173
5.15000	80.430	-0.426184
5.15167	80.447	-0.426204
5.15333	80.463	-0.426227
5.15500	80.480	-0.426255
5.15667	80.496	-0.426280
5.15833	80.512	-0.426304
5.16000	80.530	-0.426320
5.16167	80.546	-0.426331
5.16333	80.562	-0.426337
5.16500	80.580	-0.426345
5.16667	80.596	-0.426356
5.16833	80.613	-0.426372
5.17000	80.630	-0.426388
5.17167	80.647	-0.426403
5.17333	80.664	-0.426419
5.17500	80.681	-0.426433
5.17667	80.697	-0.426451
5.17833	80.714	-0.426468
5.18000	80.730	-0.426481
5.18167	80.746	-0.426490
5.18333	80.762	-0.426495
5.18500	80.780	-0.426502
5.18667	80.796	-0.426516
5.18833	80.813	-0.426531
5.19000	80.830	-0.426547
5.19167	80.847	-0.426559
5.19333	80.863	-0.426574
5.19500	80.880	-0.426590
5.19667	80.897	-0.426607
5.19833	80.913	-0.426621
5.20000	80.929	-0.426639
5.20167	80.946	-0.426653
5.20333	80.963	-0.426665
5.20500	80.979	-0.426681
5.20667	80.996	-0.426698
5.20833	81.012	-0.426718
5.21000	81.030	-0.426736
5.21167	81.047	-0.426754
5.21333	81.063	-0.426768
5.21500	81.080	-0.426780
5.21667	81.097	-0.426787
5.21833	81.113	-0.426793
5.22000	81.131	-0.426799
5.22167	81.146	-0.426807
5.22333	81.164	-0.426815
5.22500	81.180	-0.426824
5.22667	81.197	-0.426833
5.22833	81.214	-0.426845
5.23000	81.230	-0.426857
5.23167	81.246	-0.426867
5.23333	81.263	-0.426879
5.23500	81.280	-0.426886
5.23667	81.297	-0.426892
5.23833	81.313	-0.426903
5.24000	81.330	-0.426916
5.24167	81.347	-0.426929
5.24333	81.364	-0.426944
5.24500	81.380	-0.426959
5.24667	81.397	-0.426974
5.24833	81.414	-0.426995
5.25000	81.430	-0.427018
5.25167	81.448	-0.427040
5.25333	81.463	-0.427057
5.25500	81.480	-0.427068
5.25667	81.497	-0.427077
5.25833	81.513	-0.427086
5.26000	81.530	-0.427095
5.26167	81.547	-0.427101
5.26333	81.563	-0.427102
5.26500	81.580	-0.427101
5.26667	81.596	-0.427108
5.26833	81.614	-0.427117
5.27000	81.630	-0.427129
5.27167	81.646	-0.427143
5.27333	81.664	-0.427153
5.27500	81.680	-0.427166
5.27667	81.696	-0.427183
5.27833	81.714	-0.427201
5.28000	81.730	-0.427219
5.28167	81.747	-0.427241
5.28333	81.764	-0.427260
5.28500	81.780	-0.427283
5.28667	81.797	-0.427303
5.28833	81.814	-0.427324
5.29000	81.831	-0.427347
5.29167	81.847	-0.427367
5.29333	81.864	-0.427382
5.29500	81.880	-0.427395
5.29667	81.897	-0.427406
5.29833	81.914	-0.427418
5.30000	81.931	-0.427431
5.30167	81.947	-0.427440
5.30333	81.965	-0.427451
5.30500	81.981	-0.427462
5.30667	81.997	-0.427476
5.30833	82.014	-0.427491
5.31000	82.031	-0.427504
5.31167	82.047	-0.427513
5.31333	82.064	-0.427515
5.31500	82.081	-0.427518
5.31667	82.098	-0.427520
5.31833	82.115	-0.427515
5.32000	82.131	-0.427512
5.32167	82.148	-0.427511
5.32333	82.165	-0.427516
5.32500	82.181	-0.427529
5.32667	82.197	-0.427548
5.32833	82.214	-0.427578
5.33000	82.231	-0.427614
5.33167	82.248	-0.427641
5.33333	82.265	-0.427664
5.33500	82.281	-0.427687
5.33667	82.298	-0.427704
5.33833	82.314	-0.427720
5.34000	82.331	-0.427732
5.34167	82.349	-0.427744
5.34333	82.364	-0.427756
5.34500	82.381	-0.427765
5.34667	82.398	-0.427777
5.34833	82.414	-0.427788
5.35000	82.432	-0.427798
5.35167	82.448	-0.427810
5.35333	82.465	-0.427820
5.35500	82.481	-0.427829
5.35667	82.497	-0.427837
5.35833	82.515	-0.427846
5.36000	82.531	-0.427853
5.36167	82.549	-0.427857
5.36333	82.566	-0.427861
5.36500	82.581	-0.427866
5.36667	82.598	-0.427876
5.36833	82.615	-0.427892
5.37000	82.631	-0.427922
5.37167	82.647	-0.427989
5.37333	82.665	-0.428068
5.37500	82.682	-0.428153
5.37667	82.699	-0.428231
5.37833	82.714	-0.428281
5.38000	82.733	-0.428303
5.38167	82.748	-0.428316
5.38333	82.766	-0.428322
5.38500	82.782	-0.428325
5.38667	82.798	-0.428325
5.38833	82.814	-0.428323
5.39000	82.832	-0.428323
5.39167	82.848	-0.428330
5.39333	82.866	-0.428341
5.39500	82.882	-0.428361
5.39667	82.899	-0.428383
5.39833	82.915	-0.428404
5.40000	82.932	-0.428423
5.40167	82.948	-0.428440
5.40333	82.965	-0.428453
5.40500	82.981	-0.428465
5.40667	82.999	-0.428472
5.40833	83.016	-0.428479
5.41000	83.032	-0.428486
5.41167	83.047	-0.428489
5.41333	83.065	-0.428496
5.41500	83.082	-0.428503
5.41667	83.098	-0.428510
5.41833	83.114	-0.428515
5.42000	83.131	-0.428524
5.42167	83.149	-0.428534
5.42333	83.165	-0.428545
5.42500	83.182	-0.428556
5.42667	83.199	-0.428567
5.42833	83.216	-0.428578
5.43000	83.232	-0.428585
5.43167	83.249	-0.428592
5.43333	83.266	-0.428598
5.43500	83.282	-0.428602
5.43667	83.300	-0.428603
5.43833	83.315	-0.428606
5.44000	83.332	-0.428611
5.44167	83.349	-0.428621
5.44333	83.366	-0.428639
5.44500	83.382	-0.428659
5.44667	83.398	-0.428690
5.44833	83.415	-0.428710
5.45000	83.432	-0.428727
5.45167	83.448	-0.428739
5.45333	83.466	-0.428749
5.45500	83.482	-0.428757
5.45667	83.499	-0.428760
5.45833	83.515	-0.428760
5.46000	83.532	-0.428763
5.46167	83.549	-0.428765
5.46333	83.566	-0.428771
5.46500	83.583	-0.428779
5.46667	83.599	-0.428789
5.46833	83.615	-0.428800
5.47000	83.632	-0.428816
5.47167	83.648	-0.428834
5.47333	83.665	-0.428855
5.47500	83.681	-0.428873
5.47667	83.699	-0.428890
5.47833	83.717	-0.428903
5.48000	83.732	-0.428911
5.48167	83.749	-0.428921
5.48333	83.766	-0.428929
5.48500	83.783	-0.428937
5.48667	83.800	-0.428945
5.48833	83.816	-0.428954
5.49000	83.833	-0.428964
5.49167	83.849	-0.428969
5.49333	83.866	-0.428976
5.49500	83.883	-0.428983
5.49667	83.900	-0.428989
5.49833	83.915	-0.428997
5.50000	83.932	-0.429005
5.50167	83.949	-0.429015
5.50333	83.965	-0.429026
5.50500	83.983	-0.429038
5.50667	84.000	-0.429048
5.50833	84.017	-0.429057
5.51000	84.033	-0.429059
5.51167	84.049	-0.429066
5.51333	84.067	-0.429073
5.51500	84.083	-0.429080
5.51667	84.099	-0.429090
5.51833	84.116	-0.429104
5.52000	84.133	-0.429122
5.52167	84.150	-0.429144
5.52333	84.167	-0.429163
5.52500	84.183	-0.429183
5.52667	84.200	-0.429203
5.52833	84.217	-0.429220
5.53000	84.233	-0.429239
5.53167	84.249	-0.429256
5.53333	84.266	-0.429267
5.53500	84.283	-0.429275
5.53667	84.300	-0.429282
5.53833	84.316	-0.429288
5.54000	84.333	-0.429296
5.54167	84.349	-0.429300
5.54333	84.366	-0.429302
5.54500	84.383	-0.429306
5.54667	84.400	-0.429314
5.54833	84.417	-0.429323
5.55000	84.434	-0.429337
5.55167	84.450	-0.429352
5.55333	84.467	-0.429368
5.55500	84.483	-0.429383
5.55667	84.500	-0.429399
5.55833	84.517	-0.429415
5.56000	84.533	-0.429428
5.56167	84.550	-0.429434
5.56333	84.567	-0.429434
5.56500	84.583	-0.429428
5.56667	84.600	-0.429420
5.56833	84.617	-0.429416
5.57000	84.633	-0.429413
5.57167	84.652	-0.429411
5.57333	84.668	-0.429415
5.57500	84.683	-0.429423
5.57667	84.699	-0.429439
5.57833	84.716	-0.429461
5.58000	84.733	-0.429483
5.58167	84.750	-0.429501
5.58333	84.766	-0.429514
5.58500	84.784	-0.429523
5.58667	84.800	-0.429529
5.58833	84.817	-0.429527
5.59000	84.834	-0.429519
5.59167	84.851	-0.429516
5.59333	84.867	-0.429517
5.59500	84.883	-0.429518
5.59667	84.900	-0.429520
5.59833	84.916	-0.429525
5.60000	84.932	-0.429532
5.60167	84.949	-0.429543
5.60333	84.967	-0.429558
5.60500	84.984	-0.429570
5.60667	85.000	-0.429582
5.60833	85.017	-0.429596
5.61000	85.034	-0.429611
5.61167	85.050	-0.429627
5.61333	85.066	-0.429646
5.61500	85.083	-0.429665
5.61667	85.100	-0.429681
5.61833	85.117	-0.429693
5.62000	85.133	-0.429703
5.62167	85.150	-0.429712
5.62333	85.167	-0.429719
5.62500	85.184	-0.429726
5.62667	85.201	-0.429739
5.62833	85.217	-0.429749
5.63000	85.234	-0.429750
5.63167	85.251	-0.429745
5.63333	85.266	-0.429742
5.63500	85.283	-0.429739
5.63667	85.301	-0.429734
5.63833	85.316	-0.429730
5.64000	85.333	-0.429731
5.64167	85.349	-0.429737
5.64333	85.366	-0.429750
5.64500	85.383	-0.429791
5.64667	85.399	-0.429848
5.64833	85.416	-0.429907
5.65000	85.433	-0.429948
5.65167	85.450	-0.429969
5.65333	85.467	-0.429984
5.65500	85.484	-0.430001
5.65667	85.501	-0.430011
5.65833	85.517	-0.430016
5.66000	85.533	-0.430020
5.66167	85.550	-0.430028
5.66333	85.566	-0.430035
5.66500	85.584	-0.430042
5.66667	85.600	-0.430050
5.66833	85.617	-0.430060
5.67000	85.633	-0.430075
5.67167	85.650	-0.430092
5.67333	85.667	-0.430112
5.67500	85.683	-0.430131
5.67667	85.699	-0.430148
5.67833	85.716	-0.430159
5.68000	85.733	-0.430173
5.68167	85.751	-0.430186
5.68333	85.766	-0.430194
5.68500	85.784	-0.430200
5.68667	85.800	-0.430207
5.68833	85.817	-0.430216
5.69000	85.834	-0.430226
5.69167	85.850	-0.430236
5.69333	85.867	-0.430251
5.69500	85.883	-0.430265
5.69667	85.901	-0.430277
5.69833	85.917	-0.430286
5.70000	85.935	-0.430298
5.70167	85.951	-0.430310
5.70333	85.967	-0.430323
5.70500	85.984	-0.430339
5.70667	86.001	-0.430354
5.70833	86.017	-0.430366
5.71000	86.033	-0.430378
5.71167	86.051	-0.430391
5.71333	86.067	-0.430401
5.71500	86.084	-0.430408
5.71667	86.101	-0.430413
5.71833	86.117	-0.430417
5.72000	86.134	-0.430427
5.72167	86.150	-0.430443
5.72333	86.167	-0.430461
5.72500	86.184	-0.430476
5.72667	86.200	-0.430492
5.72833	86.217	-0.430509
5.73000	86.234	-0.430524
5.73167	86.251	-0.430540
5.73333	86.267	-0.430552
5.73500	86.284	-0.430561
5.73667	86.301	-0.430567
5.73833	86.317	-0.430577
5.74000	86.334	-0.430588
5.74167	86.351	-0.430593
5.74333	86.367	-0.430599
5.74500	86.384	-0.430604
5.74667	86.400	-0.430610
5.74833	86.417	-0.430614
5.75000	86.434	-0.430620
5.75167	86.451	-0.430626
5.75333	86.467	-0.430629
5.75500	86.484	-0.430633
5.75667	86.501	-0.430641
5.75833	86.517	-0.430653
5.76000	86.534	-0.430664
5.76167	86.550	-0.430674
5.76333	86.567	-0.430685
5.76500	86.583	-0.430698
5.76667	86.599	-0.430713
5.76833	86.616	-0.430730
5.77000	86.634	-0.430747
5.77167	86.651	-0.430765
5.77333	86.668	-0.430787
5.77500	86.684	-0.430818
5.77667	86.700	-0.430858
5.77833	86.717	-0.430887
5.78000	86.734	-0.430908
5.78167	86.750	-0.430926
5.78333	86.766	-0.430938
5.78500	86.784	-0.430950
5.78667	86.800	-0.430960
5.78833	86.817	-0.430967
5.79000	86.834	-0.430967
5.79167	86.850	-0.430960
5.79333	86.867	-0.430957
5.79500	86.884	-0.430956
5.79667	86.902	-0.430960
5.79833	86.917	-0.430964
5.80000	86.934	-0.430974
5.80167	86.951	-0.430983
5.80333	86.967	-0.430996
5.80500	86.984	-0.431011
5.80667	87.001	-0.431027
5.80833	87.017	-0.431043
5.81000	87.034	-0.431054
5.81167	87.051	-0.431066
5.81333	87.067	-0.431073
5.81500	87.083	-0.431079
5.81667	87.100	-0.431087
5.81833	87.117	-0.431095
5.82000	87.134	-0.431093
5.82167	87.150	-0.431096
5.82333	87.167	-0.431094
5.82500	87.185	-0.431092
5.82667	87.201	-0.431094
5.82833	87.218	-0.431102
5.83000	87.234	-0.431112
5.83167	87.251	-0.431124
5.83333	87.267	-0.431140
5.83500	87.284	-0.431159
5.83667	87.300	-0.431178
5.83833	87.317	-0.431191
5.84000	87.334	-0.431203
5.84167	87.351	-0.431212
5.84333	87.367	-0.431221
5.84500	87.384	-0.431230
5.84667	87.402	-0.431236
5.84833	87.417	-0.431243
5.85000	87.435	-0.431250
5.85167	87.451	-0.431261
5.85333	87.469	-0.431272
5.85500	87.485	-0.431280
5.85667	87.501	-0.431288
5.85833	87.518	-0.431297
5.86000	87.534	-0.431309
5.86167	87.552	-0.431324
5.86333	87.568	-0.431335
5.86500	87.584	-0.431345
5.86667	87.602	-0.431355
5.86833	87.618	-0.431369
5.87000	87.634	-0.431383
5.87167	87.650	-0.431394
5.87333	87.668	-0.431402
5.87500	87.685	-0.431409
5.87667	87.701	-0.431413
5.87833	87.716	-0.431414
5.88000	87.734	-0.431415
5.88167	87.751	-0.431414
5.88333	87.769	-0.431418
5.88500	87.784	-0.431426
5.88667	87.801	-0.431437
5.88833	87.818	-0.431452
5.89000	87.834	-0.431468
5.89167	87.851	-0.431480
5.89333	87.868	-0.431495
5.89500	87.884	-0.431513
5.89667	87.901	-0.431531
5.89833	87.918	-0.431546
5.90000	87.935	-0.431557
5.90167	87.951	-0.431563
5.90333	87.968	-0.431570
5.90500	87.984	-0.431580
5.90667	88.000	-0.431590
5.90833	88.018	-0.431598
5.91000	88.034	-0.431602
5.91167	88.051	-0.431608
5.91333	88.068	-0.431614
5.91500	88.086	-0.431620
5.91667	88.102	-0.431628
5.91833	88.119	-0.431634
5.92000	88.135	-0.431646
5.92167	88.151	-0.431660
5.92333	88.168	-0.431677
5.92500	88.184	-0.431693
5.92667	88.201	-0.431706
5.92833	88.219	-0.431714
5.93000	88.235	-0.431720
5.93167	88.252	-0.431719
5.93333	88.269	-0.431708
5.93500	88.286	-0.431698
5.93667	88.302	-0.431691
5.93833	88.319	-0.431690
5.94000	88.337	-0.431694
5.94167	88.352	-0.431705
5.94333	88.369	-0.431719
5.94500	88.385	-0.431736
5.94667	88.401	-0.431782
5.94833	88.417	-0.431838
5.95000	88.436	-0.431865
5.95167	88.451	-0.431878
5.95333	88.468	-0.431884
5.95500	88.485	-0.431888
5.95667	88.502	-0.431890
5.95833	88.519	-0.431887
5.96000	88.535	-0.431888
5.96167	88.552	-0.431892
5.96333	88.568	-0.431898
5.96500	88.584	-0.431904
5.96667	88.601	-0.431912
5.96833	88.619	-0.431922
5.97000	88.635	-0.431927
5.97167	88.653	-0.431934
5.97333	88.669	-0.431942
5.97500	88.686	-0.431948
5.97667	88.702	-0.431953
5.97833	88.719	-0.431963
5.98000	88.736	-0.431971
5.98167	88.752	-0.431977
5.98333	88.769	-0.431985
5.98500	88.785	-0.431998
5.98667	88.802	-0.432014
5.98833	88.819	-0.432023
5.99000	88.835	-0.432035
5.99167	88.852	-0.432047
5.99333	88.869	-0.432058
5.99500	88.885	-0.432068
5.99667	88.902	-0.432079
5.99833	88.919	-0.432089
6.00000	88.935	-0.432099
6.00167	88.952	-0.432109
6.00333	88.968	-0.432120
6.00500	88.985	-0.432135
6.00667	89.002	-0.432149
6.00833	89.019	-0.432163
6.01000	89.036	-0.432177
6.01167	89.053	-0.432192
6.01333	89.069	-0.432206
6.01500	89.086	-0.432223
6.01667	89.102	-0.432238
6.01833	89.118	-0.432249
6.02000	89.135	-0.432254
6.02167	89.151	-0.432256
6.02333	89.168	-0.432255
6.02500	89.185	-0.432256
6.02667	89.202	-0.432259
6.02833	89.219	-0.432261
6.03000	89.236	-0.432266
6.03167	89.253	-0.432273
6.03333	89.269	-0.432286
6.03500	89.286	-0.432298
6.03667	89.303	-0.432312
6.03833	89.319	-0.432324
6.04000	89.337	-0.432338
6.04167	89.351	-0.432351
6.04333	89.368	-0.432365
6.04500	89.385	-0.432379
6.04667	89.402	-0.432389
6.04833	89.420	-0.432399
6.05000	89.437	-0.432409
6.05167	89.453	-0.432418
6.05333	89.470	-0.432421
6.05500	89.486	-0.432427
6.05667	89.503	-0.432438
6.05833	89.520	-0.432448
6.06000	89.536	-0.432460
6.06167	89.552	-0.432472
6.06333	89.570	-0.432484
6.06500	89.587	-0.432496
6.06667	89.602	-0.432511
6.06833	89.619	-0.432526
6.07000	89.636	-0.432541
6.07167	89.652	-0.432548
6.07333	89.669	-0.432554
6.07500	89.686	-0.432559
6.07667	89.702	-0.432566
6.07833	89.719	-0.432570
6.08000	89.736	-0.432571
6.08167	89.752	-0.432570
6.08333	89.769	-0.432569
6.08500	89.787	-0.432575
6.08667	89.803	-0.432586
6.08833	89.820	-0.432600
6.09000	89.836	-0.432615
6.09167	89.853	-0.432626
6.09333	89.870	-0.432634
6.09500	89.887	-0.432638
6.09667	89.904	-0.432640
6.09833	89.920	-0.432639
6.10000	89.937	-0.432636
6.10167	89.953	-0.432630
6.10333	89.970	-0.432629
6.10500	89.986	-0.432632
6.10667	90.003	-0.432638
6.10833	90.019	-0.432648
6.11000	90.036	-0.432659
6.11167	90.053	-0.432669
6.11333	90.069	-0.432678
6.11500	90.086	-0.432683
6.11667	90.104	-0.432684
6.11833	90.120	-0.432689
6.12000	90.137	-0.432692
6.12167	90.153	-0.432695
6.12333	90.169	-0.432701
6.12500	90.187	-0.432707
6.12667	90.202	-0.432714
6.12833	90.220	-0.432722
6.13000	90.237	-0.432733
6.13167	90.253	-0.432747
6.13333	90.270	-0.432759
6.13500	90.287	-0.432766
6.13667	90.304	-0.432773
6.13833	90.320	-0.432778
6.14000	90.337	-0.432780
6.14167	90.353	-0.432786
6.14333	90.370	-0.432798
6.14500	90.387	-0.432815
6.14667	90.403	-0.432833
6.14833	90.420	-0.432854
6.15000	90.435	-0.432874
6.15167	90.453	-0.432890
6.15333	90.469	-0.432902
6.15500	90.487	-0.432908
6.15667	90.503	-0.432907
6.15833	90.520	-0.432901
6.16000	90.536	-0.432897
6.16167	90.552	-0.432898
6.16333	90.570	-0.432903
6.16500	90.587	-0.432914
6.16667	90.602	-0.432933
6.16833	90.619	-0.432969
6.17000	90.636	-0.433005
6.17167	90.653	-0.433066
6.17333	90.670	-0.433090
6.17500	90.687	-0.433111
6.17667	90.702	-0.433123
6.17833	90.720	-0.433132
6.18000	90.736	-0.433138
6.18167	90.752	-0.433136
6.18333	90.770	-0.433130
6.18500	90.787	-0.433129
6.18667	90.803	-0.433131
6.18833	90.820	-0.433139
6.19000	90.836	-0.433152
6.19167	90.854	-0.433170
6.19333	90.870	-0.433213
6.19500	90.886	-0.433267
6.19667	90.904	-0.433304
6.19833	90.921	-0.433326
6.20000	90.937	-0.433344
6.20167	90.953	-0.433354
6.20333	90.970	-0.433364
6.20500	90.988	-0.433369
6.20667	91.003	-0.433374
6.20833	91.020	-0.433378
6.21000	91.037	-0.433386
6.21167	91.054	-0.433397
6.21333	91.070	-0.433409
6.21500	91.088	-0.433425
6.21667	91.104	-0.433439
6.21833	91.121	-0.433450
6.22000	91.138	-0.433461
6.22167	91.154	-0.433469
6.22333	91.171	-0.433478
6.22500	91.186	-0.433487
6.22667	91.204	-0.433493
6.22833	91.220	-0.433499
6.23000	91.237	-0.433506
6.23167	91.254	-0.433515
6.23333	91.271	-0.433524
6.23500	91.287	-0.433535
6.23667	91.304	-0.433548
6.23833	91.321	-0.433557
6.24000	91.337	-0.433561
6.24167	91.355	-0.433570
6.24333	91.372	-0.433578
6.24500	91.387	-0.433585
6.24667	91.403	-0.433589
6.24833	91.421	-0.433595
6.25000	91.437	-0.433601
6.25167	91.453	-0.433610
6.25333	91.470	-0.433615
6.25500	91.487	-0.433621
6.25667	91.503	-0.433626
6.25833	91.521	-0.433629
6.26000	91.536	-0.433633
6.26167	91.554	-0.433633
6.26333	91.571	-0.433636
6.26500	91.587	-0.433642
6.26667	91.604	-0.433654
6.26833	91.620	-0.433668
6.27000	91.637	-0.433684
6.27167	91.654	-0.433699
6.27333	91.671	-0.433717
6.27500	91.687	-0.433736
6.27667	91.704	-0.433757
6.27833	91.721	-0.433778
6.28000	91.738	-0.433794
6.28167	91.754	-0.433813
6.28333	91.770	-0.433827
6.28500	91.787	-0.433838
6.28667	91.804	-0.433842
6.28833	91.820	-0.433840
6.29000	91.838	-0.433842
6.29167	91.854	-0.433842
6.29333	91.871	-0.433844
6.29500	91.887	-0.433846
6.29667	91.904	-0.433846
6.29833	91.921	-0.433852
6.30000	91.937	-0.433865
6.30167	91.954	-0.433877
6.30333	91.971	-0.433889
6.30500	91.987	-0.433903
6.30667	92.004	-0.433917
6.30833	92.021	-0.433927
6.31000	92.037	-0.433939
6.31167	92.054	-0.433952
6.31333	92.071	-0.433962
6.31500	92.087	-0.433972
6.31667	92.105	-0.433981
6.31833	92.121	-0.433986
6.32000	92.137	-0.433992
6.32167	92.155	-0.433999
6.32333	92.170	-0.434005
6.32500	92.187	-0.434011
6.32667	92.203	-0.434013
6.32833	92.221	-0.434012
6.33000	92.237	-0.434011
6.33167	92.253	-0.434012
6.33333	92.270	-0.434019
6.33500	92.287	-0.434031
6.33667	92.304	-0.434046
6.33833	92.320	-0.434063
6.34000	92.338	-0.434096
6.34167	92.355	-0.434116
6.34333	92.371	-0.434151
6.34500	92.388	-0.434177
6.34667	92.403	-0.434195
6.34833	92.420	-0.434207
6.35000	92.437	-0.434214
6.35167	92.453	-0.434216
6.35333	92.470	-0.434219
6.35500	92.485	-0.434224
6.35667	92.503	-0.434228
6.35833	92.521	-0.434238
6.36000	92.536	-0.434249
6.36167	92.553	-0.434263
6.36333	92.570	-0.434274
6.36500	92.587	-0.434283
6.36667	92.604	-0.434290
6.36833	92.621	-0.434297
6.37000	92.637	-0.434297
6.37167	92.654	-0.434298
6.37333	92.671	-0.434302
6.37500	92.686	-0.434308
6.37667	92.704	-0.434314
6.37833	92.720	-0.434325
6.38000	92.738	-0.434338
6.38167	92.754	-0.434353
6.38333	92.771	-0.434365
6.38500	92.787	-0.434378
6.38667	92.805	-0.434391
6.38833	92.821	-0.434401
6.39000	92.838	-0.434413
6.39167	92.854	-0.434425
6.39333	92.871	-0.434436
6.39500	92.887	-0.434443
6.39667	92.904	-0.434450
6.39833	92.920	-0.434457
6.40000	92.937	-0.434459
6.40167	92.955	-0.434461
6.40333	92.970	-0.434462
6.40500	92.987	-0.434463
6.40667	93.004	-0.434468
6.40833	93.020	-0.434477
6.41000	93.037	-0.434485
6.41167	93.053	-0.434495
6.41333	93.070	-0.434507
6.41500	93.087	-0.434523
6.41667	93.104	-0.434539
6.41833	93.120	-0.434550
6.42000	93.138	-0.434561
6.42167	93.154	-0.434566
6.42333	93.171	-0.434572
6.42500	93.188	-0.434581
6.42667	93.204	-0.434593
6.42833	93.221	-0.434604
6.43000	93.238	-0.434614
6.43167	93.254	-0.434625
6.43333	93.271	-0.434633
6.43500	93.288	-0.434644
6.43667	93.305	-0.434654
6.43833	93.321	-0.434669
6.44000	93.338	-0.434679
6.44167	93.355	-0.434690
6.44333	93.372	-0.434704
6.44500	93.387	-0.434718
6.44667	93.404	-0.434737
6.44833	93.421	-0.434752
6.45000	93.437	-0.434767
6.45167	93.454	-0.434779
6.45333	93.471	-0.434790
6.45500	93.487	-0.434800
6.45667	93.504	-0.434811
6.45833	93.521	-0.434821
6.46000	93.538	-0.434826
6.46167	93.554	-0.434830
6.46333	93.572	-0.434829
6.46500	93.587	-0.434829
6.46667	93.604	-0.434830
6.46833	93.621	-0.434832
6.47000	93.638	-0.434835
6.47167	93.655	-0.434844
6.47333	93.671	-0.434856
6.47500	93.689	-0.434868
6.47667	93.705	-0.434884
6.47833	93.721	-0.434899
6.48000	93.738	-0.434913
6.48167	93.755	-0.434931
6.48333	93.771	-0.434947
6.48500	93.788	-0.434963
6.48667	93.804	-0.434976
6.48833	93.821	-0.434986
6.49000	93.838	-0.435000
6.49167	93.854	-0.435013
6.49333	93.871	-0.435028
6.49500	93.888	-0.435043
6.49667	93.905	-0.435056
6.49833	93.922	-0.435069
6.50000	93.939	-0.435084
6.50167	93.955	-0.435098
6.50333	93.971	-0.435108
6.50500	93.988	-0.435117
6.50667	94.005	-0.435126
6.50833	94.022	-0.435136
6.51000	94.039	-0.435148
6.51167	94.056	-0.435163
6.51333	94.072	-0.435178
6.51500	94.089	-0.435197
6.51667	94.106	-0.435215
6.51833	94.122	-0.435235
6.52000	94.138	-0.435251
6.52167	94.155	-0.435262
6.52333	94.172	-0.435269
6.52500	94.188	-0.435277
6.52667	94.204	-0.435284
6.52833	94.221	-0.435292
6.53000	94.238	-0.435306
6.53167	94.255	-0.435320
6.53333	94.273	-0.435337
6.53500	94.289	-0.435356
6.53667	94.305	-0.435376
6.53833	94.321	-0.435387
6.54000	94.338	-0.435398
6.54167	94.356	-0.435402
6.54333	94.372	-0.435413
6.54500	94.389	-0.435423
6.54667	94.405	-0.435436
6.54833	94.422	-0.435447
6.55000	94.438	-0.435462
6.55167	94.455	-0.435477
6.55333	94.472	-0.435485
6.55500	94.490	-0.435496
6.55667	94.505	-0.435503
6.55833	94.522	-0.435505
6.56000	94.539	-0.435505
6.56167	94.556	-0.435509
6.56333	94.573	-0.435513
6.56500	94.589	-0.435525
6.56667	94.606	-0.435536
6.56833	94.623	-0.435553
6.57000	94.639	-0.435573
6.57167	94.656	-0.435593
6.57333	94.672	-0.435614
6.57500	94.689	-0.435637
6.57667	94.705	-0.435655
6.57833	94.722	-0.435671
6.58000	94.738	-0.435685
6.58167	94.756	-0.435700
6.58333	94.772	-0.435714
6.58500	94.789	-0.435726
6.58667	94.807	-0.435740
6.58833	94.823	-0.435756
6.59000	94.839	-0.435769
6.59167	94.856	-0.435782
6.59333	94.872	-0.435791
6.59500	94.889	-0.435800
6.59667	94.906	-0.435808
6.59833	94.922	-0.435813
6.60000	94.939	-0.435819
6.60167	94.956	-0.435829
6.60333	94.972	-0.435838
6.60500	94.989	-0.435848
6.60667	95.006	-0.435859
6.60833	95.022	-0.435869
6.61000	95.040	-0.435875
6.61167	95.056	-0.435878
6.61333	95.073	-0.435883
6.61500	95.089	-0.435885
6.61667	95.106	-0.435885
6.61833	95.123	-0.435889
6.62000	95.139	-0.435901
6.62167	95.157	-0.435920
6.62333	95.173	-0.435940
6.62500	95.189	-0.435960
6.62667	95.207	-0.435973
6.62833	95.223	-0.435988
6.63000	95.240	-0.436002
6.63167	95.256	-0.436014
6.63333	95.272	-0.436017
6.63500	95.289	-0.436019
6.63667	95.306	-0.436023
6.63833	95.323	-0.436030
6.64000	95.340	-0.436042
6.64167	95.356	-0.436058
6.64333	95.371	-0.436079
6.64500	95.389	-0.436100
6.64667	95.406	-0.436134
6.64833	95.422	-0.436172
6.65000	95.440	-0.436194
6.65167	95.456	-0.436212
6.65333	95.472	-0.436224
6.65500	95.489	-0.436236
6.65667	95.506	-0.436241
6.65833	95.523	-0.436242
6.66000	95.540	-0.436240
6.66167	95.556	-0.436237
6.66333	95.573	-0.436237
6.66500	95.590	-0.436246
6.66667	95.607	-0.436258
6.66833	95.623	-0.436266
6.67000	95.640	-0.436277
6.67167	95.656	-0.436288
6.67333	95.673	-0.436300
6.67500	95.689	-0.436309
6.67667	95.706	-0.436312
6.67833	95.723	-0.436315
6.68000	95.740	-0.436320
6.68167	95.757	-0.436329
6.68333	95.772	-0.436344
6.68500	95.789	-0.436358
6.68667	95.806	-0.436378
6.68833	95.822	-0.436395
6.69000	95.840	-0.436410
6.69167	95.856	-0.436426
6.69333	95.874	-0.436438
6.69500	95.889	-0.436443
6.69667	95.906	-0.436445
6.69833	95.922	-0.436447
6.70000	95.939	-0.436450
6.70167	95.956	-0.436456
6.70333	95.973	-0.436460
6.70500	95.990	-0.436468
6.70667	96.006	-0.436479
6.70833	96.023	-0.436492
6.71000	96.040	-0.436500
6.71167	96.056	-0.436510
6.71333	96.072	-0.436523
6.71500	96.089	-0.436534
6.71667	96.106	-0.436544
6.71833	96.123	-0.436550
6.72000	96.140	-0.436557
6.72167	96.157	-0.436564
6.72333	96.174	-0.436572
6.72500	96.190	-0.436573
6.72667	96.207	-0.436576
6.72833	96.223	-0.436577
6.73000	96.241	-0.436583
6.73167	96.257	-0.436593
6.73333	96.273	-0.436607
6.73500	96.289	-0.436624
6.73667	96.307	-0.436638
6.73833	96.323	-0.436653
6.74000	96.340	-0.436671
6.74167	96.357	-0.436687
6.74333	96.374	-0.436699
6.74500	96.391	-0.436711
6.74667	96.407	-0.436721
6.74833	96.424	-0.436729
6.75000	96.441	-0.436742
6.75167	96.458	-0.436755
6.75333	96.475	-0.436772
6.75500	96.491	-0.436792
6.75667	96.507	-0.436813
6.75833	96.524	-0.436835
6.76000	96.541	-0.436854
6.76167	96.558	-0.436867
6.76333	96.574	-0.436876
6.76500	96.591	-0.436885
6.76667	96.609	-0.436889
6.76833	96.624	-0.436889
6.77000	96.640	-0.436887
6.77167	96.658	-0.436875
6.77333	96.674	-0.436868
6.77500	96.691	-0.436866
6.77667	96.708	-0.436869
6.77833	96.724	-0.436877
6.78000	96.741	-0.436883
6.78167	96.758	-0.436893
6.78333	96.775	-0.436907
6.78500	96.791	-0.436920
6.78667	96.807	-0.436935
6.78833	96.825	-0.436949
6.79000	96.841	-0.436960
6.79167	96.857	-0.436966
6.79333	96.875	-0.436969
6.79500	96.892	-0.436970
6.79667	96.907	-0.436973
6.79833	96.925	-0.436975
6.80000	96.941	-0.436981
6.80167	96.957	-0.436992
6.80333	96.974	-0.437006
6.80500	96.990	-0.437023
6.80667	97.007	-0.437039
6.80833	97.024	-0.437055
6.81000	97.040	-0.437071
6.81167	97.056	-0.437083
6.81333	97.074	-0.437090
6.81500	97.091	-0.437093
6.81667	97.108	-0.437092
6.81833	97.124	-0.437092
6.82000	97.140	-0.437095
6.82167	97.157	-0.437100
6.82333	97.174	-0.437109
6.82500	97.190	-0.437120
6.82667	97.208	-0.437134
6.82833	97.224	-0.437151
6.83000	97.241	-0.437169
6.83167	97.257	-0.437181
6.83333	97.273	-0.437193
6.83500	97.291	-0.437201
6.83667	97.306	-0.437203
6.83833	97.324	-0.437201
6.84000	97.341	-0.437198
6.84167	97.358	-0.437195
6.84333	97.374	-0.437193
6.84500	97.391	-0.437197
6.84667	97.409	-0.437201
6.84833	97.424	-0.437212
6.85000	97.441	-0.437229
6.85167	97.457	-0.437257
6.85333	97.475	-0.437300
6.85500	97.491	-0.437320
6.85667	97.508	-0.437338
6.85833	97.524	-0.437356
6.86000	97.541	-0.437373
6.86167	97.557	-0.437392
6.86333	97.574	-0.437412
6.86500	97.591	-0.437430
6.86667	97.608	-0.437447
6.86833	97.624	-0.437459
6.87000	97.641	-0.437471
6.87167	97.658	-0.437477
6.87333	97.675	-0.437477
6.87500	97.692	-0.437478
6.87667	97.708	-0.437475
6.87833	97.725	-0.437471
6.88000	97.742	-0.437472
6.88167	97.758	-0.437479
6.88333	97.774	-0.437492
6.88500	97.791	-0.437509
6.88667	97.807	-0.437526
6.88833	97.824	-0.437546
6.89000	97.842	-0.437565
6.89167	97.858	-0.437581
6.89333	97.874	-0.437593
6.89500	97.891	-0.437600
6.89667	97.908	-0.437605
6.89833	97.924	-0.437610
6.90000	97.941	-0.437615
6.90167	97.958	-0.437628
6.90333	97.974	-0.437640
6.90500	97.991	-0.437654
6.90667	98.008	-0.437673
6.90833	98.024	-0.437700
6.91000	98.041	-0.437722
6.91167	98.058	-0.437741
6.91333	98.075	-0.437754
6.91500	98.091	-0.437764
6.91667	98.109	-0.437769
6.91833	98.125	-0.437778
6.92000	98.141	-0.437788
6.92167	98.158	-0.437797
6.92333	98.175	-0.437807
6.92500	98.191	-0.437820
6.92667	98.209	-0.437836
6.92833	98.225	-0.437853
6.93000	98.242	-0.437870
6.93167	98.258	-0.437888
6.93333	98.275	-0.437899
6.93500	98.292	-0.437906
6.93667	98.308	-0.437911
6.93833	98.326	-0.437915
6.94000	98.342	-0.437919
6.94167	98.359	-0.437929
6.94333	98.375	-0.437939
6.94500	98.392	-0.437952
6.94667	98.409	-0.437969
6.94833	98.425	-0.437987
6.95000	98.441	-0.438014
6.95167	98.458	-0.438045
6.95333	98.475	-0.438096
6.95500	98.491	-0.438134
6.95667	98.507	-0.438159
6.95833	98.525	-0.438182
6.96000	98.541	-0.438202
6.96167	98.559	-0.438216
6.96333	98.576	-0.438222
6.96500	98.592	-0.438223
6.96667	98.609	-0.438217
6.96833	98.625	-0.438214
6.97000	98.642	-0.438213
6.97167	98.658	-0.438215
6.97333	98.674	-0.438220
6.97500	98.691	-0.438227
6.97667	98.709	-0.438236
6.97833	98.725	-0.438248
6.98000	98.742	-0.438267
6.98167	98.759	-0.438282
6.98333	98.775	-0.438298
6.98500	98.792	-0.438309
6.98667	98.809	-0.438321
6.98833	98.826	-0.438330
6.99000	98.841	-0.438338
6.99167	98.859	-0.438348
6.99333	98.874	-0.438357
6.99500	98.892	-0.438365
6.99667	98.909	-0.438373
6.99833	98.924	-0.438383
7.00000	98.942	-0.438391
7.00167	98.959	-0.438401
7.00333	98.974	-0.438410
7.00500	98.991	-0.438416
7.00667	99.009	-0.438421
7.00833	99.024	-0.438424
7.01000	99.042	-0.438430
7.01167	99.058	-0.438440
7.01333	99.075	-0.438451
7.01500	99.092	-0.438462
7.01667	99.109	-0.438476
7.01833	99.124	-0.438490
7.02000	99.142	-0.438506
7.02167	99.159	-0.438522
7.02333	99.175	-0.438536
7.02500	99.192	-0.438549
7.02667	99.208	-0.438557
7.02833	99.225	-0.438563
7.03000	99.242	-0.438561
7.03167	99.258	-0.438559
7.03333	99.275	-0.438560
7.03500	99.292	-0.438560
7.03667	99.308	-0.438560
7.03833	99.325	-0.438564
7.04000	99.343	-0.438569
7.04167	99.358	-0.438577
7.04333	99.375	-0.438591
7.04500	99.392	-0.438606
7.04667	99.409	-0.438619
7.04833	99.426	-0.438630
7.05000	99.442	-0.438643
7.05167	99.459	-0.438653
7.05333	99.476	-0.438661
7.05500	99.493	-0.438665
7.05667	99.510	-0.438671
7.05833	99.526	-0.438678
7.06000	99.542	-0.438686
7.06167	99.559	-0.438697
7.06333	99.575	-0.438714
7.06500	99.593	-0.438732
7.06667	99.610	-0.438750
7.06833	99.626	-0.438790
7.07000	99.642	-0.438817
7.07167	99.659	-0.438848
7.07333	99.676	-0.438870
7.07500	99.692	-0.438886
7.07667	99.709	-0.438898
7.07833	99.726	-0.438906
7.08000	99.743	-0.438912
7.08167	99.759	-0.438918
7.08333	99.776	-0.438924
7.08500	99.792	-0.438930
7.08667	99.810	-0.438935
7.08833	99.826	-0.438936
7.09000	99.843	-0.438937
7.09167	99.859	-0.438942
7.09333	99.876	-0.438947
7.09500	99.893	-0.438949
7.09667	99.909	-0.438950
7.09833	99.925	-0.438960
7.10000	99.941	-0.438974
7.10167	99.959	-0.438991
7.10333	99.976	-0.439011
7.10500	99.992	-0.439032
7.10667	100.009	-0.439078
7.10833	100.026	-0.439100
7.11000	100.042	-0.439122
7.11167	100.059	-0.439141
7.11333	100.076	-0.439156
7.11500	100.093	-0.439165
7.11667	100.109	-0.439174
7.11833	100.125	-0.439179
7.12000	100.143	-0.439182
7.12167	100.159	-0.439182
7.12333	100.176	-0.439181
7.12500	100.192	-0.439185
7.12667	100.209	-0.439189
7.12833	100.226	-0.439192
7.13000	100.243	-0.439198
7.13167	100.260	-0.439209
7.13333	100.276	-0.439217
7.13500	100.293	-0.439223
7.13667	100.309	-0.439225
7.13833	100.326	-0.439230
7.14000	100.343	-0.439236
7.14167	100.359	-0.439244
7.14333	100.377	-0.439253
7.14500	100.393	-0.439254
7.14667	100.411	-0.439256
7.14833	100.426	-0.439260
7.15000	100.443	-0.439265
7.15167	100.460	-0.439270
7.15333	100.477	-0.439276
7.15500	100.493	-0.439277
7.15667	100.510	-0.439285
7.15833	100.527	-0.439292
7.16000	100.543	-0.439305
7.16167	100.559	-0.439322
7.16333	100.576	-0.439338
7.16500	100.593	-0.439352
7.16667	100.609	-0.439367
7.16833	100.626	-0.439382
7.17000	100.642	-0.439398
7.17167	100.659	-0.439416
7.17333	100.676	-0.439434
7.17500	100.694	-0.439456
7.17667	100.709	-0.439477
7.17833	100.726	-0.439498
7.18000	100.743	-0.439518
7.18167	100.760	-0.439542
7.18333	100.777	-0.439557
7.18500	100.793	-0.439566
7.18667	100.809	-0.439570
7.18833	100.826	-0.439575
7.19000	100.843	-0.439580
7.19167	100.860	-0.439588
7.19333	100.876	-0.439594
7.19500	100.893	-0.439599
7.19667	100.910	-0.439609
7.19833	100.926	-0.439624
7.20000	100.943	-0.439643
7.20167	100.960	-0.439657
7.20333	100.977	-0.439666
7.20500	100.993	-0.439672
7.20667	101.011	-0.439680
7.20833	101.026	-0.439684
7.21000	101.043	-0.439695
7.21167	101.060	-0.439709
7.21333	101.076	-0.439723
7.21500	101.094	-0.439737
7.21667	101.110	-0.439757
7.21833	101.127	-0.439779
7.22000	101.144	-0.439800
7.22167	101.160	-0.439823
7.22333	101.176	-0.439842
7.22500	101.194	-0.439857
7.22667	101.210	-0.439870
7.22833	101.227	-0.439884
7.23000	101.243	-0.439897
7.23167	101.259	-0.439905
7.23333	101.277	-0.439914
7.23500	101.292	-0.439918
7.23667	101.310	-0.439918
7.23833	101.327	-0.439921
7.24000	101.345	-0.439929
7.24167	101.361	-0.439939
7.24333	101.376	-0.439950
7.24500	101.394	-0.439963
7.24667	101.410	-0.439981
7.24833	101.428	-0.440001
7.25000	101.444	-0.440019
7.25167	101.460	-0.440041
7.25333	101.477	-0.440055
7.25500	101.493	-0.440064
7.25667	101.511	-0.440073
7.25833	101.527	-0.440081
7.26000	101.544	-0.440090
7.26167	101.560	-0.440099
7.26333	101.578	-0.440107
7.26500	101.595	-0.440109
7.26667	101.612	-0.440112
7.26833	101.628	-0.440115
7.27000	101.644	-0.440121
7.27167	101.660	-0.440127
7.27333	101.677	-0.440136
7.27500	101.695	-0.440142
7.27667	101.711	-0.440153
7.27833	101.729	-0.440167
7.28000	101.745	-0.440188
7.28167	101.761	-0.440224
7.28333	101.777	-0.440245
7.28500	101.793	-0.440262
7.28667	101.810	-0.440279
7.28833	101.827	-0.440298
7.29000	101.844	-0.440315
7.29167	101.860	-0.440324
7.29333	101.877	-0.440329
7.29500	101.894	-0.440337
7.29667	101.911	-0.440348
7.29833	101.927	-0.440361
7.30000	101.943	-0.440374
7.30167	101.960	-0.440389
7.30333	101.978	-0.440401
7.30500	101.994	-0.440414
7.30667	102.011	-0.440429
7.30833	102.028	-0.440441
7.31000	102.044	-0.440444
7.31167	102.061	-0.440448
7.31333	102.078	-0.440455
7.31500	102.094	-0.440462
7.31667	102.111	-0.440470
7.31833	102.127	-0.440482
7.32000	102.143	-0.440497
7.32167	102.161	-0.440509
7.32333	102.177	-0.440522
7.32500	102.193	-0.440537
7.32667	102.211	-0.440548
7.32833	102.228	-0.440554
7.33000	102.244	-0.440561
7.33167	102.261	-0.440570
7.33333	102.278	-0.440579
7.33500	102.295	-0.440588
7.33667	102.312	-0.440597
7.33833	102.328	-0.440610
7.34000	102.344	-0.440625
7.34167	102.361	-0.440639
7.34333	102.377	-0.440658
7.34500	102.394	-0.440678
7.34667	102.411	-0.440697
7.34833	102.428	-0.440712
7.35000	102.444	-0.440728
7.35167	102.462	-0.440744
7.35333	102.478	-0.440752
7.35500	102.494	-0.440758
7.35667	102.512	-0.440763
7.35833	102.527	-0.440769
7.36000	102.545	-0.440772
7.36167	102.562	-0.440779
7.36333	102.579	-0.440790
7.36500	102.594	-0.440807
7.36667	102.611	-0.440820
7.36833	102.627	-0.440825
7.37000	102.644	-0.440828
7.37167	102.661	-0.440827
7.37333	102.677	-0.440825
7.37500	102.695	-0.440821
7.37667	102.711	-0.440817
7.37833	102.728	-0.440815
7.38000	102.744	-0.440817
7.38167	102.761	-0.440824
7.38333	102.777	-0.440838
7.38500	102.794	-0.440858
7.38667	102.811	-0.440877
7.38833	102.828	-0.440896
7.39000	102.844	-0.440915
7.39167	102.861	-0.440937
7.39333	102.878	-0.440955
7.39500	102.894	-0.440969
7.39667	102.912	-0.440985
7.39833	102.927	-0.441000
7.40000	102.945	-0.441010
7.40167	102.960	-0.441020
7.40333	102.978	-0.441036
7.40500	102.993	-0.441051
7.40667	103.010	-0.441068
7.40833	103.027	-0.441081
7.41000	103.044	-0.441101
7.41167	103.061	-0.441120
7.41333	103.077	-0.441136
7.41500	103.094	-0.441150
7.41667	103.111	-0.441161
7.41833	103.127	-0.441169
7.42000	103.144	-0.441176
7.42167	103.161	-0.441180
7.42333	103.177	-0.441183
7.42500	103.193	-0.441190
7.42667	103.211	-0.441196
7.42833	103.227	-0.441199
7.43000	103.244	-0.441208
7.43167	103.261	-0.441218
7.43333	103.278	-0.441227
7.43500	103.294	-0.441234
7.43667	103.311	-0.441247
7.43833	103.328	-0.441261
7.44000	103.344	-0.441272
7.44167	103.360	-0.441282
7.44333	103.378	-0.441297
7.44500	103.394	-0.441311
7.44667	103.411	-0.441321
7.44833	103.428	-0.441332
7.45000	103.444	-0.441344
7.45167	103.461	-0.441355
7.45333	103.478	-0.441364
7.45500	103.495	-0.441377
7.45667	103.511	-0.441390
7.45833	103.528	-0.441397
7.46000	103.544	-0.441405
7.46167	103.562	-0.441419
7.46333	103.577	-0.441437
7.46500	103.593	-0.441454
7.46667	103.611	-0.441475
7.46833	103.627	-0.441497
7.47000	103.644	-0.441529
7.47167	103.662	-0.441551
7.47333	103.678	-0.441572
7.47500	103.694	-0.441591
7.47667	103.711	-0.441601
7.47833	103.728	-0.441611
7.48000	103.745	-0.441620
7.48167	103.762	-0.441627
7.48333	103.777	-0.441634
7.48500	103.793	-0.441643
7.48667	103.812	-0.441652
7.48833	103.827	-0.441666
7.49000	103.846	-0.441678
7.49167	103.860	-0.441691
7.49333	103.878	-0.441704
7.49500	103.894	-0.441719
7.49667	103.912	-0.441736
7.49833	103.928	-0.441749
7.50000	103.945	-0.441760
7.50167	103.961	-0.441772
7.50333	103.978	-0.441783
7.50500	103.994	-0.441793
7.50667	104.011	-0.441802
7.50833	104.027	-0.441806
7.51000	104.045	-0.441806
7.51167	104.062	-0.441808
7.51333	104.079	-0.441812
7.51500	104.094	-0.441822
7.51667	104.111	-0.441833
7.51833	104.129	-0.441838
7.52000	104.144	-0.441844
7.52167	104.162	-0.441851
7.52333	104.178	-0.441860
7.52500	104.195	-0.441872
7.52667	104.212	-0.441886
7.52833	104.228	-0.441902
7.53000	104.244	-0.441921
7.53167	104.261	-0.441944
7.53333	104.277	-0.441990
7.53500	104.294	-0.442035
7.53667	104.311	-0.442055
7.53833	104.328	-0.442069
7.54000	104.344	-0.442076
7.54167	104.362	-0.442078
7.54333	104.378	-0.442077
7.54500	104.394	-0.442078
7.54667	104.412	-0.442081
7.54833	104.429	-0.442085
7.55000	104.445	-0.442092
7.55167	104.461	-0.442107
7.55333	104.478	-0.442128
7.55500	104.494	-0.442149
7.55667	104.512	-0.442165
7.55833	104.529	-0.442177
7.56000	104.545	-0.442186
7.56167	104.563	-0.442194
7.56333	104.578	-0.442204
7.56500	104.595	-0.442215
7.56667	104.611	-0.442227
7.56833	104.629	-0.442236
7.57000	104.646	-0.442242
7.57167	104.662	-0.442251
7.57333	104.679	-0.442263
7.57500	104.696	-0.442270
7.57667	104.712	-0.442276
7.57833	104.729	-0.442282
7.58000	104.745	-0.442284
7.58167	104.762	-0.442285
7.58333	104.778	-0.442296
7.58500	104.795	-0.442315
7.58667	104.812	-0.442340
7.58833	104.828	-0.442359
7.59000	104.845	-0.442374
7.59167	104.862	-0.442385
7.59333	104.878	-0.442392
7.59500	104.895	-0.442399
7.59667	104.912	-0.442407
7.59833	104.929	-0.442411
7.60000	104.945	-0.442411
7.60167	104.962	-0.442414
7.60333	104.979	-0.442421
7.60500	104.995	-0.442431
7.60667	105.012	-0.442442
7.60833	105.029	-0.442451
7.61000	105.045	-0.442455
7.61167	105.062	-0.442462
7.61333	105.079	-0.442469
7.61500	105.095	-0.442477
7.61667	105.112	-0.442488
7.61833	105.129	-0.442499
7.62000	105.145	-0.442512
7.62167	105.162	-0.442526
7.62333	105.179	-0.442540
7.62500	105.195	-0.442552
7.62667	105.212	-0.442566
7.62833	105.229	-0.442577
7.63000	105.245	-0.442587
7.63167	105.261	-0.442592
7.63333	105.278	-0.442595
7.63500	105.295	-0.442598
7.63667	105.312	-0.442602
7.63833	105.328	-0.442610
7.64000	105.345	-0.442623
7.64167	105.361	-0.442636
7.64333	105.379	-0.442651
7.64500	105.395	-0.442670
7.64667	105.412	-0.442701
7.64833	105.429	-0.442761
7.65000	105.445	-0.442786
7.65167	105.461	-0.442805
7.65333	105.479	-0.442823
7.65500	105.495	-0.442840
7.65667	105.511	-0.442854
7.65833	105.527	-0.442869
7.66000	105.544	-0.442880
7.66167	105.561	-0.442885
7.66333	105.578	-0.442883
7.66500	105.595	-0.442881
7.66667	105.611	-0.442886
7.66833	105.628	-0.442891
7.67000	105.646	-0.442897
7.67167	105.661	-0.442906
7.67333	105.677	-0.442915
7.67500	105.694	-0.442927
7.67667	105.711	-0.442943
7.67833	105.728	-0.442958
7.68000	105.745	-0.442973
7.68167	105.762	-0.442987
7.68333	105.778	-0.443001
7.68500	105.795	-0.443014
7.68667	105.812	-0.443026
7.68833	105.828	-0.443034
7.69000	105.845	-0.443037
7.69167	105.860	-0.443040
7.69333	105.878	-0.443043
7.69500	105.895	-0.443048
7.69667	105.911	-0.443054
7.69833	105.927	-0.443064
7.70000	105.945	-0.443075
7.70167	105.962	-0.443087
7.70333	105.978	-0.443098
7.70500	105.995	-0.443111
7.70667	106.011	-0.443118
7.70833	106.028	-0.443123
7.71000	106.045	-0.443127
7.71167	106.062	-0.443132
7.71333	106.078	-0.443141
7.71500	106.095	-0.443153
7.71667	106.112	-0.443167
7.71833	106.127	-0.443183
7.72000	106.144	-0.443198
7.72167	106.161	-0.443225
7.72333	106.178	-0.443266
7.72500	106.194	-0.443293
7.72667	106.210	-0.443327
7.72833	106.227	-0.443369
7.73000	106.245	-0.443427
7.73167	106.261	-0.443506
7.73333	106.277	-0.443554
7.73500	106.295	-0.443579
7.73667	106.311	-0.443598
7.73833	106.328	-0.443606
7.74000	106.345	-0.443611
7.74167	106.361	-0.443616
7.74333	106.378	-0.443617
7.74500	106.395	-0.443618
7.74667	106.412	-0.443620
7.74833	106.429	-0.443627
7.75000	106.446	-0.443640
7.75167	106.461	-0.443656
7.75333	106.478	-0.443671
7.75500	106.495	-0.443689
7.75667	106.512	-0.443707
7.75833	106.528	-0.443727
7.76000	106.545	-0.443746
7.76167	106.562	-0.443760
7.76333	106.577	-0.443771
7.76500	106.595	-0.443781
7.76667	106.612	-0.443796
7.76833	106.628	-0.443815
7.77000	106.645	-0.443832
7.77167	106.662	-0.443845
7.77333	106.679	-0.443855
7.77500	106.696	-0.443866
7.77667	106.712	-0.443876
7.77833	106.730	-0.443884
7.78000	106.746	-0.443892
7.78167	106.763	-0.443898
7.78333	106.778	-0.443906
7.78500	106.795	-0.443919
7.78667	106.812	-0.443934
7.78833	106.828	-0.443952
7.79000	106.846	-0.443966
7.79167	106.862	-0.443984
7.79333	106.879	-0.444002
7.79500	106.896	-0.444018
7.79667	106.913	-0.444030
7.79833	106.929	-0.444042
7.80000	106.945	-0.444057
7.80167	106.962	-0.444076
7.80333	106.979	-0.444097
7.80500	106.996	-0.444118
7.80667	107.013	-0.444141
7.80833	107.030	-0.444159
7.81000	107.045	-0.444175
7.81167	107.062	-0.444194
7.81333	107.079	-0.444211
7.81500	107.095	-0.444225
7.81667	107.113	-0.444232
7.81833	107.129	-0.444242
7.82000	107.146	-0.444254
7.82167	107.162	-0.444262
7.82333	107.180	-0.444273
7.82500	107.196	-0.444283
7.82667	107.212	-0.444294
7.82833	107.229	-0.444308
7.83000	107.245	-0.444322
7.83167	107.262	-0.444335
7.83333	107.279	-0.444349
7.83500	107.295	-0.444360
7.83667	107.312	-0.444371
7.83833	107.329	-0.444376
7.84000	107.345	-0.444380
7.84167	107.363	-0.444384
7.84333	107.379	-0.444389
7.84500	107.395	-0.444399
7.84667	107.412	-0.444409
7.84833	107.428	-0.444421
7.85000	107.446	-0.444437
7.85167	107.463	-0.444456
7.85333	107.480	-0.444477
7.85500	107.496	-0.444500
7.85667	107.514	-0.444520
7.85833	107.529	-0.444536
7.86000	107.547	-0.444551
7.86167	107.563	-0.444563
7.86333	107.579	-0.444575
7.86500	107.596	-0.444581
7.86667	107.612	-0.444583
7.86833	107.629	-0.444585
7.87000	107.645	-0.444593
7.87167	107.662	-0.444607
7.87333	107.679	-0.444619
7.87500	107.695	-0.444632
7.87667	107.712	-0.444645
7.87833	107.729	-0.444659
7.88000	107.746	-0.444666
7.88167	107.763	-0.444676
7.88333	107.780	-0.444683
7.88500	107.796	-0.444691
7.88667	107.812	-0.444701
7.88833	107.829	-0.444712
7.89000	107.846	-0.444726
7.89167	107.862	-0.444738
7.89333	107.879	-0.444750
7.89500	107.896	-0.444765
7.89667	107.913	-0.444779
7.89833	107.929	-0.444791
7.90000	107.946	-0.444805
7.90167	107.962	-0.444821
7.90333	107.979	-0.444848
7.90500	107.997	-0.444871
7.90667	108.013	-0.444885
7.90833	108.029	-0.444897
7.91000	108.046	-0.444906
7.91167	108.063	-0.444910
7.91333	108.079	-0.444911
7.91500	108.096	-0.444913
7.91667	108.113	-0.444916
7.91833	108.129	-0.444925
7.92000	108.146	-0.444936
7.92167	108.162	-0.444947
7.92333	108.180	-0.444961
7.92500	108.196	-0.444970
7.92667	108.212	-0.444974
7.92833	108.229	-0.444979
7.93000	108.246	-0.444985
7.93167	108.262	-0.444991
7.93333	108.278	-0.444999
7.93500	108.295	-0.445009
7.93667	108.312	-0.445023
7.93833	108.329	-0.445035
7.94000	108.346	-0.445043
7.94167	108.363	-0.445054
7.94333	108.379	-0.445066
7.94500	108.396	-0.445074
7.94667	108.413	-0.445088
7.94833	108.429	-0.445103
7.95000	108.447	-0.445116
7.95167	108.463	-0.445131
7.95333	108.478	-0.445147
7.95500	108.496	-0.445164
7.95667	108.513	-0.445174
7.95833	108.530	-0.445182
7.96000	108.546	-0.445186
7.96167	108.562	-0.445189
7.96333	108.580	-0.445189
7.96500	108.596	-0.445192
7.96667	108.613	-0.445197
7.96833	108.630	-0.445202
7.97000	108.645	-0.445211
7.97167	108.662	-0.445222
7.97333	108.679	-0.445240
7.97500	108.696	-0.445258
7.97667	108.713	-0.445277
7.97833	108.729	-0.445294
7.98000	108.746	-0.445311
7.98167	108.763	-0.445327
7.98333	108.779	-0.445344
7.98500	108.796	-0.445363
7.98667	108.813	-0.445380
7.98833	108.829	-0.445396
7.99000	108.846	-0.445412
7.99167	108.862	-0.445432
7.99333	108.880	-0.445449
7.99500	108.896	-0.445467
7.99667	108.913	-0.445480
7.99833	108.931	-0.445487
8.00000	108.947	-0.445493
8.00167	108.963	-0.445496
8.00333	108.980	-0.445500
8.00500	108.997	-0.445504
8.00667	109.013	-0.445511
8.00833	109.029	-0.445524
8.01000	109.046	-0.445540
8.01167	109.063	-0.445556
8.01333	109.079	-0.445574
8.01500	109.095	-0.445589
8.01667	109.111	-0.445608
8.01833	109.129	-0.445628
8.02000	109.146	-0.445644
8.02167	109.163	-0.445658
8.02333	109.179	-0.445673
8.02500	109.195	-0.445685
8.02667	109.213	-0.445692
8.02833	109.230	-0.445702
8.03000	109.246	-0.445713
8.03167	109.264	-0.445722
8.03333	109.279	-0.445731
8.03500	109.295	-0.445740
8.03667	109.312	-0.445754
8.03833	109.329	-0.445768
8.04000	109.346	-0.445784
8.04167	109.363	-0.445799
8.04333	109.380	-0.445813
8.04500	109.397	-0.445826
8.04667	109.413	-0.445838
8.04833	109.429	-0.445853
8.05000	109.447	-0.445872
8.05167	109.463	-0.445891
8.05333	109.480	-0.445906
8.05500	109.497	-0.445917
8.05667	109.514	-0.445926
8.05833	109.530	-0.445935
8.06000	109.547	-0.445943
8.06167	109.564	-0.445950
8.06333	109.579	-0.445962
8.06500	109.596	-0.445973
8.06667	109.613	-0.445988
8.06833	109.631	-0.446010
8.07000	109.646	-0.446027
8.07167	109.662	-0.446048
8.07333	109.680	-0.446067
8.07500	109.697	-0.446083
8.07667	109.713	-0.446095
8.07833	109.730	-0.446107
8.08000	109.746	-0.446121
8.08167	109.763	-0.446138
8.08333	109.779	-0.446156
8.08500	109.797	-0.446176
8.08667	109.813	-0.446190
8.08833	109.829	-0.446203
8.09000	109.847	-0.446217
8.09167	109.863	-0.446232
8.09333	109.880	-0.446250
8.09500	109.897	-0.446263
8.09667	109.914	-0.446278
8.09833	109.929	-0.446290
8.10000	109.948	-0.446303
8.10167	109.964	-0.446318
8.10333	109.980	-0.446333
8.10500	109.997	-0.446342
8.10667	110.014	-0.446347
8.10833	110.029	-0.446350
8.11000	110.045	-0.446351
8.11167	110.062	-0.446357
8.11333	110.079	-0.446367
8.11500	110.096	-0.446379
8.11667	110.113	-0.446395
8.11833	110.129	-0.446414
8.12000	110.147	-0.446436
8.12167	110.163	-0.446458
8.12333	110.179	-0.446478
8.12500	110.195	-0.446499
8.12667	110.213	-0.446519
8.12833	110.231	-0.446535
8.13000	110.247	-0.446552
8.13167	110.263	-0.446570
8.13333	110.280	-0.446591
8.13500	110.297	-0.446606
8.13667	110.313	-0.446622
8.13833	110.329	-0.446644
8.14000	110.346	-0.446668
8.14167	110.364	-0.446687
8.14333	110.380	-0.446703
8.14500	110.397	-0.446718
8.14667	110.413	-0.446727
8.14833	110.430	-0.446731
8.15000	110.447	-0.446731
8.15167	110.463	-0.446730
8.15333	110.480	-0.446723
8.15500	110.496	-0.446717
8.15667	110.513	-0.446715
8.15833	110.530	-0.446719
8.16000	110.547	-0.446729
8.16167	110.563	-0.446742
8.16333	110.580	-0.446760
8.16500	110.597	-0.446780
8.16667	110.614	-0.446800
8.16833	110.630	-0.446815
8.17000	110.646	-0.446828
8.17167	110.664	-0.446837
8.17333	110.680	-0.446845
8.17500	110.697	-0.446854
8.17667	110.714	-0.446866
8.17833	110.731	-0.446879
8.18000	110.746	-0.446892
8.18167	110.763	-0.446910
8.18333	110.780	-0.446933
8.18500	110.797	-0.446957
8.18667	110.813	-0.446979
8.18833	110.830	-0.447002
8.19000	110.847	-0.447021
8.19167	110.863	-0.447041
8.19333	110.880	-0.447059
8.19500	110.897	-0.447077
8.19667	110.913	-0.447100
8.19833	110.930	-0.447125
8.20000	110.947	-0.447147
8.20167	110.964	-0.447167
8.20333	110.980	-0.447186
8.20500	110.997	-0.447202
8.20667	111.013	-0.447214
8.20833	111.029	-0.447217
8.21000	111.046	-0.447220
8.21167	111.063	-0.447223
8.21333	111.079	-0.447226
8.21500	111.096	-0.447231
8.21667	111.113	-0.447238
8.21833	111.130	-0.447249
8.22000	111.147	-0.447261
8.22167	111.164	-0.447279
8.22333	111.180	-0.447300
8.22500	111.196	-0.447324
8.22667	111.213	-0.447348
8.22833	111.230	-0.447368
8.23000	111.247	-0.447395
8.23167	111.263	-0.447419
8.23333	111.280	-0.447438
8.23500	111.298	-0.447450
8.23667	111.314	-0.447459
8.23833	111.330	-0.447466
8.24000	111.347	-0.447473
8.24167	111.365	-0.447486
8.24333	111.380	-0.447498
8.24500	111.397	-0.447510
8.24667	111.413	-0.447521
8.24833	111.430	-0.447537
8.25000	111.448	-0.447553
8.25167	111.463	-0.447567
8.25333	111.481	-0.447581
8.25500	111.497	-0.447593
8.25667	111.514	-0.447607
8.25833	111.530	-0.447619
8.26000	111.546	-0.447640
8.26167	111.563	-0.447664
8.26333	111.580	-0.447685
8.26500	111.597	-0.447705
8.26667	111.615	-0.447727
8.26833	111.631	-0.447747
8.27000	111.647	-0.447766
8.27167	111.664	-0.447785
8.27333	111.680	-0.447798
8.27500	111.696	-0.447810
8.27667	111.713	-0.447817
8.27833	111.730	-0.447826
8.28000	111.747	-0.447834
8.28167	111.764	-0.447841
8.28333	111.779	-0.447848
8.28500	111.797	-0.447856
8.28667	111.813	-0.447865
8.28833	111.830	-0.447874
8.29000	111.846	-0.447890
8.29167	111.863	-0.447909
8.29333	111.879	-0.447928
8.29500	111.897	-0.447950
8.29667	111.914	-0.447971
8.29833	111.930	-0.447989
8.30000	111.948	-0.448002
8.30167	111.963	-0.448015
8.30333	111.981	-0.448026
8.30500	111.997	-0.448035
8.30667	112.014	-0.448040
8.30833	112.029	-0.448045
8.31000	112.047	-0.448057
8.31167	112.064	-0.448072
8.31333	112.079	-0.448091
8.31500	112.097	-0.448113
8.31667	112.113	-0.448136
8.31833	112.130	-0.448159
8.32000	112.147	-0.448179
8.32167	112.163	-0.448195
8.32333	112.180	-0.448208
8.32500	112.197	-0.448220
8.32667	112.214	-0.448227
8.32833	112.230	-0.448228
8.33000	112.248	-0.448230
8.33167	112.265	-0.448232
8.33333	112.280	-0.448237
8.33500	112.295	-0.448246
8.33667	112.314	-0.448260
8.33833	112.330	-0.448278
8.34000	112.346	-0.448300
8.34167	112.364	-0.448322
8.34333	112.380	-0.448342
8.34500	112.397	-0.448365
8.34667	112.414	-0.448389
8.34833	112.431	-0.448413
8.35000	112.447	-0.448443
8.35167	112.465	-0.448467
8.35333	112.481	-0.448489
8.35500	112.497	-0.448508
8.35667	112.514	-0.448518
8.35833	112.531	-0.448525
8.36000	112.548	-0.448533
8.36167	112.565	-0.448535
8.36333	112.580	-0.448533
8.36500	112.596	-0.448539
8.36667	112.614	-0.448551
8.36833	112.630	-0.448567
8.37000	112.647	-0.448586
8.37167	112.664	-0.448608
8.37333	112.681	-0.448629
8.37500	112.697	-0.448642
8.37667	112.714	-0.448653
8.37833	112.731	-0.448669
8.38000	112.747	-0.448685
8.38167	112.764	-0.448695
8.38333	112.780	-0.448707
8.38500	112.798	-0.448720
8.38667	112.814	-0.448735
8.38833	112.830	-0.448751
8.39000	112.847	-0.448771
8.39167	112.864	-0.448789
8.39333	112.882	-0.448800
8.39500	112.897	-0.448807
8.39667	112.914	-0.448813
8.39833	112.930	-0.448821
8.40000	112.947	-0.448826
8.40167	112.965	-0.448834
8.40333	112.981	-0.448844
8.40500	112.998	-0.448857
8.40667	113.014	-0.448872
8.40833	113.032	-0.448891
8.41000	113.047	-0.448914
8.41167	113.064	-0.448939
8.41333	113.080	-0.448956
8.41500	113.098	-0.448972
8.41667	113.115	-0.448988
8.41833	113.131	-0.449000
8.42000	113.148	-0.449011
8.42167	113.164	-0.449023
8.42333	113.182	-0.449038
8.42500	113.198	-0.449058
8.42667	113.215	-0.449082
8.42833	113.231	-0.449105
8.43000	113.247	-0.449128
8.43167	113.264	-0.449146
8.43333	113.282	-0.449165
8.43500	113.298	-0.449177
8.43667	113.314	-0.449184
8.43833	113.331	-0.449188
8.44000	113.348	-0.449191
8.44167	113.365	-0.449192
8.44333	113.382	-0.449192
8.44500	113.400	-0.449195
8.44667	113.414	-0.449198
8.44833	113.432	-0.449205
8.45000	113.448	-0.449217
8.45167	113.464	-0.449231
8.45333	113.482	-0.449251
8.45500	113.498	-0.449274
8.45667	113.514	-0.449299
8.45833	113.531	-0.449323
8.46000	113.548	-0.449343
8.46167	113.564	-0.449357
8.46333	113.582	-0.449371
8.46500	113.597	-0.449381
8.46667	113.614	-0.449396
8.46833	113.631	-0.449412
8.47000	113.648	-0.449430
8.47167	113.664	-0.449452
8.47333	113.680	-0.449475
8.47500	113.698	-0.449500
8.47667	113.714	-0.449521
8.47833	113.731	-0.449535
8.48000	113.748	-0.449542
8.48167	113.764	-0.449549
8.48333	113.781	-0.449557
8.48500	113.799	-0.449567
8.48667	113.814	-0.449578
8.48833	113.829	-0.449591
8.49000	113.847	-0.449602
8.49167	113.863	-0.449616
8.49333	113.880	-0.449632
8.49500	113.897	-0.449650
8.49667	113.914	-0.449671
8.49833	113.931	-0.449690
8.50000	113.948	-0.449708
8.50167	113.965	-0.449722
8.50333	113.981	-0.449736
8.50500	113.998	-0.449750
8.50667	114.015	-0.449768
8.50833	114.031	-0.449787
8.51000	114.048	-0.449802
8.51167	114.065	-0.449819
8.51333	114.082	-0.449836
8.51500	114.099	-0.449852
8.51667	114.115	-0.449867
8.51833	114.132	-0.449880
8.52000	114.149	-0.449887
8.52167	114.165	-0.449886
8.52333	114.182	-0.449891
8.52500	114.198	-0.449900
8.52667	114.215	-0.449908
8.52833	114.232	-0.449918
8.53000	114.247	-0.449932
8.53167	114.265	-0.449946
8.53333	114.283	-0.449963
8.53500	114.299	-0.449981
8.53667	114.315	-0.450002
8.53833	114.332	-0.450022
8.54000	114.347	-0.450040
8.54167	114.364	-0.450062
8.54333	114.381	-0.450092
8.54500	114.398	-0.450117
8.54667	114.415	-0.450138
8.54833	114.432	-0.450158
8.55000	114.448	-0.450170
8.55167	114.465	-0.450183
8.55333	114.482	-0.450191
8.55500	114.499	-0.450200
8.55667	114.515	-0.450206
8.55833	114.531	-0.450215
8.56000	114.549	-0.450228
8.56167	114.565	-0.450248
8.56333	114.583	-0.450275
8.56500	114.598	-0.450325
8.56667	114.615	-0.450363
8.56833	114.632	-0.450401
8.57000	114.648	-0.450454
8.57167	114.665	-0.450516
8.57333	114.682	-0.450556
8.57500	114.698	-0.450581
8.57667	114.715	-0.450600
8.57833	114.732	-0.450618
8.58000	114.749	-0.450629
8.58167	114.765	-0.450637
8.58333	114.782	-0.450645
8.58500	114.799	-0.450655
8.58667	114.816	-0.450665
8.58833	114.832	-0.450673
8.59000	114.849	-0.450684
8.59167	114.865	-0.450702
8.59333	114.882	-0.450720
8.59500	114.898	-0.450739
8.59667	114.915	-0.450762
8.59833	114.932	-0.450781
8.60000	114.949	-0.450795
8.60167	114.964	-0.450806
8.60333	114.981	-0.450817
8.60500	114.998	-0.450825
8.60667	115.016	-0.450829
8.60833	115.031	-0.450829
8.61000	115.048	-0.450834
8.61167	115.066	-0.450845
8.61333	115.082	-0.450858
8.61500	115.099	-0.450876
8.61667	115.115	-0.450899
8.61833	115.132	-0.450921
8.62000	115.149	-0.450935
8.62167	115.166	-0.450945
8.62333	115.182	-0.450957
8.62500	115.200	-0.450969
8.62667	115.216	-0.450979
8.62833	115.233	-0.450990
8.63000	115.250	-0.451004
8.63167	115.266	-0.451022
8.63333	115.282	-0.451039
8.63500	115.298	-0.451057
8.63667	115.315	-0.451074
8.63833	115.333	-0.451089
8.64000	115.349	-0.451099
8.64167	115.367	-0.451108
8.64333	115.383	-0.451120
8.64500	115.400	-0.451137
8.64667	115.417	-0.451156
8.64833	115.433	-0.451172
8.65000	115.450	-0.451188
8.65167	115.466	-0.451202
8.65333	115.482	-0.451216
8.65500	115.499	-0.451224
8.65667	115.516	-0.451231
8.65833	115.532	-0.451238
8.66000	115.549	-0.451246
8.66167	115.565	-0.451259
8.66333	115.581	-0.451275
8.66500	115.600	-0.451294
8.66667	115.615	-0.451310
8.66833	115.633	-0.451328
8.67000	115.648	-0.451348
8.67167	115.666	-0.451369
8.67333	115.683	-0.451384
8.67500	115.699	-0.451396
8.67667	115.715	-0.451405
8.67833	115.732	-0.451418
8.68000	115.749	-0.451432
8.68167	115.766	-0.451443
8.68333	115.782	-0.451454
8.68500	115.799	-0.451464
8.68667	115.815	-0.451475
8.68833	115.832	-0.451487
8.69000	115.848	-0.451499
8.69167	115.865	-0.451508
8.69333	115.882	-0.451519
8.69500	115.899	-0.451531
8.69667	115.916	-0.451546
8.69833	115.932	-0.451557
8.70000	115.949	-0.451569
8.70167	115.966	-0.451581
8.70333	115.982	-0.451595
8.70500	115.998	-0.451611
8.70667	116.015	-0.451626
8.70833	116.032	-0.451644
8.71000	116.049	-0.451660
8.71167	116.065	-0.451674
8.71333	116.083	-0.451692
8.71500	116.098	-0.451710
8.71667	116.116	-0.451727
8.71833	116.132	-0.451745
8.72000	116.149	-0.451763
8.72167	116.166	-0.451779
8.72333	116.183	-0.451796
8.72500	116.200	-0.451814
8.72667	116.216	-0.451834
8.72833	116.232	-0.451856
8.73000	116.249	-0.451881
8.73167	116.266	-0.451908
8.73333	116.283	-0.451932
8.73500	116.299	-0.451955
8.73667	116.316	-0.451981
8.73833	116.333	-0.452005
8.74000	116.350	-0.452023
8.74167	116.365	-0.452037
8.74333	116.383	-0.452048
8.74500	116.400	-0.452057
8.74667	116.416	-0.452063
8.74833	116.433	-0.452075
8.75000	116.449	-0.452088
8.75167	116.466	-0.452104
8.75333	116.482	-0.452118
8.75500	116.500	-0.452135
8.75667	116.516	-0.452153
8.75833	116.533	-0.452170
8.76000	116.549	-0.452191
8.76167	116.566	-0.452212
8.76333	116.583	-0.452231
8.76500	116.600	-0.452248
8.76667	116.618	-0.452268
8.76833	116.633	-0.452291
8.77000	116.650	-0.452314
8.77167	116.667	-0.452335
8.77333	116.684	-0.452359
8.77500	116.701	-0.452381
8.77667	116.718	-0.452403
8.77833	116.734	-0.452422
8.78000	116.750	-0.452441
8.78167	116.767	-0.452460
8.78333	116.783	-0.452473
8.78500	116.801	-0.452488
8.78667	116.817	-0.452508
8.78833	116.834	-0.452532
8.79000	116.850	-0.452554
8.79167	116.867	-0.452578
8.79333	116.885	-0.452604
8.79500	116.901	-0.452629
8.79667	116.919	-0.452650
8.79833	116.934	-0.452673
8.80000	116.952	-0.452693
8.80167	116.968	-0.452706
8.80333	116.984	-0.452719
8.80500	117.001	-0.452730
8.80667	117.018	-0.452742
8.80833	117.034	-0.452750
8.81000	117.051	-0.452756
8.81167	117.068	-0.452760
8.81333	117.084	-0.452767
8.81500	117.101	-0.452774
8.81667	117.118	-0.452783
8.81833	117.134	-0.452793
8.82000	117.151	-0.452803
8.82167	117.167	-0.452813
8.82333	117.184	-0.452824
8.82500	117.202	-0.452837
8.82667	117.218	-0.452850
8.82833	117.235	-0.452861
8.83000	117.251	-0.452874
8.83167	117.267	-0.452890
8.83333	117.285	-0.452911
8.83500	117.301	-0.452927
8.83667	117.317	-0.452946
8.83833	117.335	-0.452963
8.84000	117.351	-0.452978
8.84167	117.368	-0.452993
8.84333	117.385	-0.453008
8.84500	117.401	-0.453020
8.84667	117.418	-0.453035
8.84833	117.435	-0.453054
8.85000	117.452	-0.453073
8.85167	117.469	-0.453089
8.85333	117.484	-0.453102
8.85500	117.500	-0.453115
8.85667	117.517	-0.453132
8.85833	117.534	-0.453148
8.86000	117.552	-0.453167
8.86167	117.568	-0.453184
8.86333	117.585	-0.453201
8.86500	117.601	-0.453222
8.86667	117.619	-0.453244
8.86833	117.635	-0.453266
8.87000	117.651	-0.453284
8.87167	117.668	-0.453297
8.87333	117.685	-0.453307
8.87500	117.701	-0.453318
8.87667	117.718	-0.453327
8.87833	117.735	-0.453337
8.88000	117.752	-0.453347
8.88167	117.769	-0.453359
8.88333	117.784	-0.453377
8.88500	117.802	-0.453398
8.88667	117.818	-0.453423
8.88833	117.835	-0.453449
8.89000	117.851	-0.453473
8.89167	117.868	-0.453498
8.89333	117.886	-0.453525
8.89500	117.903	-0.453545
8.89667	117.919	-0.453565
8.89833	117.935	-0.453586
8.90000	117.953	-0.453605
8.90167	117.969	-0.453624
8.90333	117.985	-0.453642
8.90500	118.002	-0.453661
8.90667	118.018	-0.453680
8.90833	118.036	-0.453694
8.91000	118.053	-0.453707
8.91167	118.070	-0.453723
8.91333	118.086	-0.453738
8.91500	118.103	-0.453747
8.91667	118.119	-0.453759
8.91833	118.137	-0.453771
8.92000	118.153	-0.453779
8.92167	118.169	-0.453785
8.92333	118.186	-0.453795
8.92500	118.203	-0.453804
8.92667	118.219	-0.453816
8.92833	118.236	-0.453828
8.93000	118.252	-0.453841
8.93167	118.269	-0.453855
8.93333	118.286	-0.453867
8.93500	118.303	-0.453879
8.93667	118.319	-0.453896
8.93833	118.336	-0.453909
8.94000	118.353	-0.453916
8.94167	118.370	-0.453927
8.94333	118.386	-0.453931
8.94500	118.403	-0.453932
8.94667	118.420	-0.453936
8.94833	118.436	-0.453938
8.95000	118.452	-0.453938
8.95167	118.469	-0.453943
8.95333	118.485	-0.453951
8.95500	118.502	-0.453967
8.95667	118.519	-0.453985
8.95833	118.535	-0.454017
8.96000	118.553	-0.454059
8.96167	118.568	-0.454108
8.96333	118.586	-0.454131
8.96500	118.603	-0.454150
8.96667	118.620	-0.454166
8.96833	118.636	-0.454178
8.97000	118.652	-0.454191
8.97167	118.668	-0.454205
8.97333	118.686	-0.454214
8.97500	118.703	-0.454226
8.97667	118.719	-0.454237
8.97833	118.735	-0.454248
8.98000	118.752	-0.454259
8.98167	118.770	-0.454268
8.98333	118.786	-0.454273
8.98500	118.803	-0.454279
8.98667	118.819	-0.454286
8.98833	118.835	-0.454295
8.99000	118.852	-0.454304
8.99167	118.868	-0.454315
8.99333	118.885	-0.454330
8.99500	118.902	-0.454346
8.99667	118.918	-0.454364
8.99833	118.934	-0.454385
9.00000	118.952	-0.454406
9.00167	118.969	-0.454419
9.00333	118.985	-0.454436
9.00500	119.003	-0.454451
9.00667	119.018	-0.454468
9.00833	119.034	-0.454481
9.01000	119.051	-0.454490
9.01167	119.069	-0.454499
9.01333	119.085	-0.454510
9.01500	119.102	-0.454526
9.01667	119.118	-0.454548
9.01833	119.135	-0.454572
9.02000	119.152	-0.454593
9.02167	119.168	-0.454614
9.02333	119.185	-0.454635
9.02500	119.201	-0.454659
9.02667	119.218	-0.454675
9.02833	119.235	-0.454688
9.03000	119.252	-0.454697
9.03167	119.269	-0.454706
9.03333	119.286	-0.454719
9.03500	119.302	-0.454739
9.03667	119.318	-0.454761
9.03833	119.336	-0.454784
9.04000	119.351	-0.454804
9.04167	119.368	-0.454825
9.04333	119.385	-0.454846
9.04500	119.401	-0.454864
9.04667	119.419	-0.454882
9.04833	119.436	-0.454901
9.05000	119.451	-0.454916
9.05167	119.468	-0.454930
9.05333	119.484	-0.454943
9.05500	119.501	-0.454960
9.05667	119.518	-0.454977
9.05833	119.535	-0.454996
9.06000	119.552	-0.455011
9.06167	119.568	-0.455021
9.06333	119.585	-0.455037
9.06500	119.602	-0.455057
9.06667	119.618	-0.455081
9.06833	119.636	-0.455105
9.07000	119.652	-0.455130
9.07167	119.669	-0.455151
9.07333	119.686	-0.455174
9.07500	119.702	-0.455198
9.07667	119.719	-0.455222
9.07833	119.735	-0.455249
9.08000	119.751	-0.455270
9.08167	119.768	-0.455288
9.08333	119.785	-0.455303
9.08500	119.802	-0.455323
9.08667	119.819	-0.455343
9.08833	119.836	-0.455365
9.09000	119.852	-0.455386
9.09167	119.869	-0.455407
9.09333	119.886	-0.455432
9.09500	119.904	-0.455458
9.09667	119.919	-0.455487
9.09833	119.935	-0.455516
9.10000	119.953	-0.455541
9.10167	119.970	-0.455561
9.10333	119.986	-0.455579
9.10500	120.003	-0.455593
9.10667	120.020	-0.455604
9.10833	120.037	-0.455615
9.11000	120.053	-0.455628
9.11167	120.070	-0.455645
9.11333	120.085	-0.455670
9.11500	120.103	-0.455697
9.11667	120.120	-0.455726
9.11833	120.137	-0.455754
9.12000	120.154	-0.455777
9.12167	120.170	-0.455796
9.12333	120.188	-0.455814
9.12500	120.203	-0.455829
9.12667	120.220	-0.455840
9.12833	120.237	-0.455849
9.13000	120.253	-0.455860
9.13167	120.269	-0.455878
9.13333	120.287	-0.455900
9.13500	120.303	-0.455924
9.13667	120.319	-0.455948
9.13833	120.336	-0.455973
9.14000	120.353	-0.455996
9.14167	120.369	-0.456017
9.14333	120.387	-0.456033
9.14500	120.403	-0.456049
9.14667	120.419	-0.456069
9.14833	120.436	-0.456086
9.15000	120.453	-0.456106
9.15167	120.470	-0.456126
9.15333	120.486	-0.456145
9.15500	120.503	-0.456170
9.15667	120.519	-0.456198
9.15833	120.537	-0.456228
9.16000	120.552	-0.456256
9.16167	120.569	-0.456279
9.16333	120.586	-0.456297
9.16500	120.602	-0.456317
9.16667	120.619	-0.456332
9.16833	120.635	-0.456349
9.17000	120.653	-0.456364
9.17167	120.669	-0.456379
9.17333	120.686	-0.456392
9.17500	120.703	-0.456402
9.17667	120.719	-0.456415
9.17833	120.736	-0.456430
9.18000	120.753	-0.456446
9.18167	120.769	-0.456457
9.18333	120.786	-0.456462
9.18500	120.802	-0.456469
9.18667	120.819	-0.456479
9.18833	120.835	-0.456494
9.19000	120.853	-0.456515
9.19167	120.869	-0.456533
9.19333	120.886	-0.456549
9.19500	120.902	-0.456567
9.19667	120.919	-0.456588
9.19833	120.936	-0.456605
9.20000	120.952	-0.456620
9.20167	120.969	-0.456632
9.20333	120.986	-0.456645
9.20500	121.002	-0.456663
9.20667	121.020	-0.456683
9.20833	121.036	-0.456705
9.21000	121.053	-0.456722
9.21167	121.069	-0.456739
9.21333	121.085	-0.456755
9.21500	121.102	-0.456769
9.21667	121.119	-0.456779
9.21833	121.134	-0.456787
9.22000	121.152	-0.456797
9.22167	121.169	-0.456807
9.22333	121.185	-0.456824
9.22500	121.202	-0.456848
9.22667	121.219	-0.456873
9.22833	121.235	-0.456898
9.23000	121.252	-0.456922
9.23167	121.270	-0.456951
9.23333	121.286	-0.456975
9.23500	121.302	-0.456996
9.23667	121.319	-0.457017
9.23833	121.336	-0.457037
9.24000	121.353	-0.457056
9.24167	121.369	-0.457073
9.24333	121.386	-0.457090
9.24500	121.402	-0.457108
9.24667	121.419	-0.457122
9.24833	121.434	-0.457138
9.25000	121.452	-0.457161
9.25167	121.469	-0.457184
9.25333	121.485	-0.457204
9.25500	121.502	-0.457229
9.25667	121.519	-0.457253
9.25833	121.535	-0.457278
9.26000	121.553	-0.457302
9.26167	121.570	-0.457328
9.26333	121.585	-0.457351
9.26500	121.602	-0.457371
9.26667	121.618	-0.457384
9.26833	121.635	-0.457394
9.27000	121.652	-0.457410
9.27167	121.669	-0.457427
9.27333	121.686	-0.457451
9.27500	121.703	-0.457476
9.27667	121.719	-0.457501
9.27833	121.736	-0.457527
9.28000	121.751	-0.457558
9.28167	121.769	-0.457591
9.28333	121.786	-0.457619
9.28500	121.801	-0.457643
9.28667	121.819	-0.457660
9.28833	121.835	-0.457678
9.29000	121.852	-0.457695
9.29167	121.868	-0.457715
9.29333	121.886	-0.457735
9.29500	121.901	-0.457754
9.29667	121.919	-0.457773
9.29833	121.935	-0.457791
9.30000	121.951	-0.457811
9.30167	121.969	-0.457835
9.30333	121.985	-0.457858
9.30500	122.002	-0.457882
9.30667	122.018	-0.457901
9.30833	122.035	-0.457919
9.31000	122.052	-0.457937
9.31167	122.069	-0.457959
9.31333	122.085	-0.457982
9.31500	122.102	-0.458008
9.31667	122.118	-0.458027
9.31833	122.135	-0.458046
9.32000	122.151	-0.458063
9.32167	122.168	-0.458078
9.32333	122.185	-0.458094
9.32500	122.202	-0.458104
9.32667	122.219	-0.458114
9.32833	122.236	-0.458122
9.33000	122.253	-0.458130
9.33167	122.270	-0.458149
9.33333	122.286	-0.458173
9.33500	122.302	-0.458202
9.33667	122.319	-0.458233
9.33833	122.336	-0.458266
9.34000	122.352	-0.458290
9.34167	122.369	-0.458315
9.34333	122.385	-0.458337
9.34500	122.402	-0.458357
9.34667	122.418	-0.458374
9.34833	122.436	-0.458394
9.35000	122.452	-0.458416
9.35167	122.470	-0.458441
9.35333	122.485	-0.458468
9.35500	122.502	-0.458495
9.35667	122.518	-0.458517
9.35833	122.535	-0.458534
9.36000	122.553	-0.458549
9.36167	122.569	-0.458561
9.36333	122.586	-0.458577
9.36500	122.602	-0.458594
9.36667	122.620	-0.458618
9.36833	122.637	-0.458644
9.37000	122.652	-0.458676
9.37167	122.670	-0.458722
9.37333	122.686	-0.458785
9.37500	122.702	-0.458817
9.37667	122.719	-0.458844
9.37833	122.736	-0.458869
9.38000	122.752	-0.458887
9.38167	122.768	-0.458903
9.38333	122.785	-0.458916
9.38500	122.803	-0.458932
9.38667	122.819	-0.458946
9.38833	122.836	-0.458961
9.39000	122.852	-0.458977
9.39167	122.869	-0.458994
9.39333	122.886	-0.459008
9.39500	122.903	-0.459022
9.39667	122.919	-0.459041
9.39833	122.935	-0.459056
9.40000	122.951	-0.459072
9.40167	122.968	-0.459087
9.40333	122.985	-0.459104
9.40500	123.002	-0.459121
9.40667	123.018	-0.459142
9.40833	123.035	-0.459170
9.41000	123.052	-0.459208
9.41167	123.068	-0.459238
9.41333	123.086	-0.459269
9.41500	123.102	-0.459298
9.41667	123.119	-0.459324
9.41833	123.137	-0.459341
9.42000	123.152	-0.459353
9.42167	123.168	-0.459362
9.42333	123.186	-0.459373
9.42500	123.202	-0.459385
9.42667	123.218	-0.459405
9.42833	123.235	-0.459429
9.43000	123.251	-0.459455
9.43167	123.269	-0.459485
9.43333	123.285	-0.459513
9.43500	123.302	-0.459542
9.43667	123.319	-0.459567
9.43833	123.336	-0.459591
9.44000	123.353	-0.459608
9.44167	123.369	-0.459620
9.44333	123.385	-0.459632
9.44500	123.403	-0.459647
9.44667	123.419	-0.459662
9.44833	123.435	-0.459678
9.45000	123.452	-0.459700
9.45167	123.469	-0.459727
9.45333	123.486	-0.459756
9.45500	123.501	-0.459789
9.45667	123.518	-0.459870
9.45833	123.535	-0.459925
9.46000	123.551	-0.459957
9.46167	123.569	-0.459983
9.46333	123.585	-0.460009
9.46500	123.602	-0.460027
9.46667	123.618	-0.460042
9.46833	123.635	-0.460057
9.47000	123.652	-0.460073
9.47167	123.670	-0.460088
9.47333	123.686	-0.460104
9.47500	123.703	-0.460125
9.47667	123.719	-0.460151
9.47833	123.736	-0.460174
9.48000	123.752	-0.460196
9.48167	123.769	-0.460219
9.48333	123.786	-0.460240
9.48500	123.802	-0.460263
9.48667	123.819	-0.460285
9.48833	123.835	-0.460304
9.49000	123.852	-0.460320
9.49167	123.869	-0.460332
9.49333	123.884	-0.460348
9.49500	123.902	-0.460365
9.49667	123.919	-0.460385
9.49833	123.935	-0.460406
9.50000	123.952	-0.460428
9.50167	123.969	-0.460451
9.50333	123.986	-0.460476
9.50500	124.002	-0.460505
9.50667	124.019	-0.460532
9.50833	124.036	-0.460551
9.51000	124.053	-0.460568
9.51167	124.069	-0.460589
9.51333	124.086	-0.460610
9.51500	124.102	-0.460629
9.51667	124.119	-0.460649
9.51833	124.136	-0.460671
9.52000	124.153	-0.460691
9.52167	124.170	-0.460715
9.52333	124.186	-0.460739
9.52500	124.203	-0.460764
9.52667	124.220	-0.460785
9.52833	124.236	-0.460807
9.53000	124.253	-0.460834
9.53167	124.269	-0.460856
9.53333	124.287	-0.460877
9.53500	124.303	-0.460895
9.53667	124.318	-0.460911
9.53833	124.336	-0.460929
9.54000	124.353	-0.460948
9.54167	124.369	-0.460964
9.54333	124.386	-0.460979
9.54500	124.404	-0.460994
9.54667	124.419	-0.461013
9.54833	124.436	-0.461036
9.55000	124.452	-0.461057
9.55167	124.470	-0.461079
9.55333	124.486	-0.461102
9.55500	124.503	-0.461128
9.55667	124.520	-0.461155
9.55833	124.537	-0.461209
9.56000	124.553	-0.461238
9.56167	124.570	-0.461261
9.56333	124.587	-0.461278
9.56500	124.602	-0.461293
9.56667	124.620	-0.461306
9.56833	124.637	-0.461320
9.57000	124.653	-0.461333
9.57167	124.670	-0.461340
9.57333	124.687	-0.461356
9.57500	124.704	-0.461373
9.57667	124.721	-0.461397
9.57833	124.737	-0.461423
9.58000	124.753	-0.461451
9.58167	124.770	-0.461480
9.58333	124.786	-0.461506
9.58500	124.804	-0.461533
9.58667	124.819	-0.461559
9.58833	124.836	-0.461585
9.59000	124.852	-0.461604
9.59167	124.870	-0.461621
9.59333	124.886	-0.461634
9.59500	124.903	-0.461646
9.59667	124.919	-0.461656
9.59833	124.936	-0.461670
9.60000	124.953	-0.461688
9.60167	124.970	-0.461706
9.60333	124.985	-0.461727
9.60500	125.002	-0.461750
9.60667	125.020	-0.461773
9.60833	125.036	-0.461799
9.61000	125.054	-0.461824
9.61167	125.070	-0.461848
9.61333	125.086	-0.461866
9.61500	125.104	-0.461885
9.61667	125.120	-0.461901
9.61833	125.137	-0.461917
9.62000	125.154	-0.461936
9.62167	125.170	-0.461951
9.62333	125.187	-0.461964
9.62500	125.203	-0.461978
9.62667	125.220	-0.461993
9.62833	125.237	-0.462008
9.63000	125.252	-0.462024
9.63167	125.270	-0.462044
9.63333	125.286	-0.462064
9.63500	125.302	-0.462087
9.63667	125.320	-0.462112
9.63833	125.336	-0.462139
9.64000	125.354	-0.462162
9.64167	125.370	-0.462180
9.64333	125.387	-0.462194
9.64500	125.403	-0.462206
9.64667	125.419	-0.462215
9.64833	125.436	-0.462228
9.65000	125.452	-0.462244
9.65167	125.469	-0.462262
9.65333	125.486	-0.462277
9.65500	125.501	-0.462300
9.65667	125.520	-0.462329
9.65833	125.536	-0.462358
9.66000	125.552	-0.462385
9.66167	125.570	-0.462416
9.66333	125.585	-0.462445
9.66500	125.602	-0.462470
9.66667	125.619	-0.462495
9.66833	125.636	-0.462518
9.67000	125.653	-0.462538
9.67167	125.669	-0.462553
9.67333	125.686	-0.462568
9.67500	125.703	-0.462586
9.67667	125.720	-0.462602
9.67833	125.737	-0.462616
9.68000	125.753	-0.462632
9.68167	125.770	-0.462651
9.68333	125.785	-0.462672
9.68500	125.803	-0.462692
9.68667	125.819	-0.462712
9.68833	125.837	-0.462733
9.69000	125.853	-0.462754
9.69167	125.870	-0.462775
9.69333	125.887	-0.462797
9.69500	125.903	-0.462823
9.69667	125.920	-0.462853
9.69833	125.936	-0.462893
9.70000	125.953	-0.462942
9.70167	125.970	-0.462992
9.70333	125.987	-0.463022
9.70500	126.003	-0.463046
9.70667	126.020	-0.463065
9.70833	126.037	-0.463085
9.71000	126.054	-0.463102
9.71167	126.070	-0.463122
9.71333	126.086	-0.463141
9.71500	126.103	-0.463159
9.71667	126.120	-0.463183
9.71833	126.136	-0.463208
9.72000	126.154	-0.463234
9.72167	126.170	-0.463253
9.72333	126.185	-0.463268
9.72500	126.204	-0.463281
9.72667	126.220	-0.463292
9.72833	126.237	-0.463307
9.73000	126.253	-0.463329
9.73167	126.270	-0.463353
9.73333	126.287	-0.463372
9.73500	126.303	-0.463392
9.73667	126.320	-0.463414
9.73833	126.337	-0.463435
9.74000	126.353	-0.463458
9.74167	126.370	-0.463483
9.74333	126.387	-0.463508
9.74500	126.403	-0.463532
9.74667	126.420	-0.463553
9.74833	126.436	-0.463574
9.75000	126.453	-0.463596
9.75167	126.468	-0.463616
9.75333	126.486	-0.463634
9.75500	126.503	-0.463651
9.75667	126.520	-0.463669
9.75833	126.536	-0.463693
9.76000	126.553	-0.463719
9.76167	126.570	-0.463745
9.76333	126.587	-0.463768
9.76500	126.603	-0.463788
9.76667	126.620	-0.463805
9.76833	126.637	-0.463823
9.77000	126.653	-0.463842
9.77167	126.670	-0.463860
9.77333	126.688	-0.463884
9.77500	126.703	-0.463906
9.77667	126.720	-0.463926
9.77833	126.737	-0.463944
9.78000	126.754	-0.463963
9.78167	126.771	-0.463980
9.78333	126.787	-0.463997
9.78500	126.804	-0.464016
9.78667	126.820	-0.464034
9.78833	126.838	-0.464051
9.79000	126.853	-0.464071
9.79167	126.870	-0.464097
9.79333	126.887	-0.464134
9.79500	126.904	-0.464162
9.79667	126.920	-0.464189
9.79833	126.936	-0.464215
9.80000	126.953	-0.464243
9.80167	126.970	-0.464280
9.80333	126.986	-0.464331
9.80500	127.003	-0.464364
9.80667	127.020	-0.464391
9.80833	127.037	-0.464412
9.81000	127.053	-0.464428
9.81167	127.070	-0.464447
9.81333	127.087	-0.464467
9.81500	127.103	-0.464487
9.81667	127.120	-0.464504
9.81833	127.136	-0.464524
9.82000	127.153	-0.464546
9.82167	127.171	-0.464569
9.82333	127.188	-0.464597
9.82500	127.204	-0.464627
9.82667	127.219	-0.464653
9.82833	127.237	-0.464669
9.83000	127.253	-0.464682
9.83167	127.271	-0.464696
9.83333	127.287	-0.464715
9.83500	127.303	-0.464733
9.83667	127.320	-0.464754
9.83833	127.337	-0.464778
9.84000	127.353	-0.464800
9.84167	127.370	-0.464830
9.84333	127.387	-0.464866
9.84500	127.403	-0.464921
9.84667	127.421	-0.464952
9.84833	127.436	-0.464981
9.85000	127.454	-0.465007
9.85167	127.470	-0.465030
9.85333	127.487	-0.465052
9.85500	127.503	-0.465070
9.85667	127.520	-0.465088
9.85833	127.536	-0.465104
9.86000	127.553	-0.465120
9.86167	127.571	-0.465135
9.86333	127.587	-0.465156
9.86500	127.604	-0.465179
9.86667	127.620	-0.465200
9.86833	127.637	-0.465221
9.87000	127.653	-0.465238
9.87167	127.671	-0.465252
9.87333	127.687	-0.465266
9.87500	127.704	-0.465284
9.87667	127.720	-0.465303
9.87833	127.737	-0.465325
9.88000	127.755	-0.465347
9.88167	127.770	-0.465370
9.88333	127.787	-0.465395
9.88500	127.804	-0.465419
9.88667	127.821	-0.465443
9.88833	127.837	-0.465464
9.89000	127.853	-0.465482
9.89167	127.869	-0.465500
9.89333	127.887	-0.465520
9.89500	127.904	-0.465540
9.89667	127.920	-0.465565
9.89833	127.937	-0.465595
9.90000	127.953	-0.465623
9.90167	127.971	-0.465653
9.90333	127.988	-0.465683
9.90500	128.004	-0.465710
9.90667	128.020	-0.465736
9.90833	128.036	-0.465761
9.91000	128.054	-0.465786
9.91167	128.070	-0.465805
9.91333	128.088	-0.465823
9.91500	128.103	-0.465842
9.91667	128.120	-0.465859
9.91833	128.138	-0.465875
9.92000	128.154	-0.465889
9.92167	128.170	-0.465904
9.92333	128.187	-0.465921
9.92500	128.204	-0.465942
9.92667	128.220	-0.465963
9.92833	128.236	-0.465989
9.93000	128.254	-0.466013
9.93167	128.270	-0.466039
9.93333	128.287	-0.466065
9.93500	128.304	-0.466088
9.93667	128.322	-0.466108
9.93833	128.337	-0.466116
9.94000	128.353	-0.466122
9.94167	128.371	-0.466132
9.94333	128.388	-0.466150
9.94500	128.403	-0.466174
9.94667	128.421	-0.466203
9.94833	128.437	-0.466230
9.95000	128.454	-0.466259
9.95167	128.471	-0.466289
9.95333	128.487	-0.466321
9.95500	128.504	-0.466347
9.95667	128.520	-0.466368
9.95833	128.538	-0.466388
9.96000	128.554	-0.466409
9.96167	128.570	-0.466437
9.96333	128.587	-0.466468
9.96500	128.604	-0.466501
9.96667	128.621	-0.466527
9.96833	128.637	-0.466548
9.97000	128.654	-0.466565
9.97167	128.671	-0.466585
9.97333	128.686	-0.466601
9.97500	128.704	-0.466617
9.97667	128.721	-0.466636
9.97833	128.737	-0.466659
9.98000	128.754	-0.466683
9.98167	128.771	-0.466706
9.98333	128.787	-0.466726
9.98500	128.804	-0.466743
9.98667	128.820	-0.466756
9.98833	128.838	-0.466773
9.99000	128.854	-0.466793
9.99167	128.871	-0.466811
9.99333	128.888	-0.466830
9.99500	128.904	-0.466855
9.99667	128.921	-0.466876
9.99833	128.938	-0.466899
10.0000	128.953	-0.466919
10.0017	128.970	-0.466938
10.0033	128.988	-0.466959
10.0050	129.004	-0.466982
10.0067	129.022	-0.467007
10.0083	129.038	-0.467034
10.0100	129.054	-0.467061
10.0117	129.071	-0.467086
10.0133	129.088	-0.467117
10.0150	129.105	-0.467145
10.0167	129.122	-0.467168
10.0183	129.138	-0.467186
10.0200	129.155	-0.467202
10.0217	129.171	-0.467223
10.0233	129.187	-0.467242
10.0250	129.204	-0.467266
10.0267	129.221	-0.467290
10.0283	129.237	-0.467314
10.0300	129.256	-0.467334
10.0317	129.271	-0.467358
10.0333	129.289	-0.467383
10.0350	129.305	-0.467403
10.0367	129.322	-0.467420
10.0383	129.339	-0.467440
10.0400	129.355	-0.467463
10.0417	129.372	-0.467486
10.0433	129.388	-0.467511
10.0450	129.405	-0.467535
10.0467	129.422	-0.467562
10.0483	129.439	-0.467593
10.0500	129.455	-0.467650
10.0517	129.472	-0.467742
10.0533	129.488	-0.467778
10.0550	129.506	-0.467807
10.0567	129.522	-0.467836
10.0583	129.538	-0.467863
10.0600	129.555	-0.467886
10.0617	129.572	-0.467906
10.0633	129.588	-0.467925
10.0650	129.605	-0.467939
10.0667	129.621	-0.467956
10.0683	129.638	-0.467976
10.0700	129.655	-0.468001
10.0717	129.672	-0.468025
10.0733	129.688	-0.468049
10.0750	129.706	-0.468078
10.0767	129.722	-0.468109
10.0783	129.739	-0.468139
10.0800	129.756	-0.468170
10.0817	129.772	-0.468198
10.0833	129.790	-0.468219
10.0850	129.805	-0.468237
10.0867	129.821	-0.468250
10.0883	129.838	-0.468263
10.0900	129.856	-0.468275
10.0917	129.872	-0.468288
10.0933	129.888	-0.468304
10.0950	129.905	-0.468320
10.0967	129.921	-0.468338
10.0983	129.939	-0.468364
10.1000	129.956	-0.468387
10.1017	129.972	-0.468409
10.1033	129.988	-0.468428
10.1050	130.005	-0.468448
10.1067	130.022	-0.468471
10.1083	130.039	-0.468497
10.1100	130.056	-0.468527
10.1117	130.072	-0.468556
10.1133	130.089	-0.468578
10.1150	130.106	-0.468598
10.1167	130.123	-0.468620
10.1183	130.139	-0.468640
10.1200	130.156	-0.468659
10.1217	130.171	-0.468673
10.1233	130.189	-0.468689
10.1250	130.205	-0.468703
10.1267	130.222	-0.468723
10.1283	130.239	-0.468746
10.1300	130.256	-0.468773
10.1317	130.272	-0.468802
10.1333	130.288	-0.468830
10.1350	130.305	-0.468856
10.1367	130.321	-0.468885
10.1383	130.339	-0.468931
10.1400	130.356	-0.468965
10.1417	130.373	-0.469007
10.1433	130.389	-0.469038
10.1450	130.405	-0.469069
10.1467	130.422	-0.469098
10.1483	130.438	-0.469129
10.1500	130.456	-0.469157
10.1517	130.473	-0.469178
10.1533	130.488	-0.469197
10.1550	130.506	-0.469218
10.1567	130.522	-0.469239
10.1583	130.538	-0.469262
10.1600	130.555	-0.469286
10.1617	130.572	-0.469312
10.1633	130.590	-0.469332
10.1650	130.606	-0.469348
10.1667	130.623	-0.469367
10.1683	130.639	-0.469382
10.1700	130.655	-0.469393
10.1717	130.673	-0.469404
10.1733	130.688	-0.469413
10.1750	130.706	-0.469424
10.1767	130.722	-0.469437
10.1783	130.739	-0.469455
10.1800	130.755	-0.469476
10.1817	130.772	-0.469496
10.1833	130.789	-0.469517
10.1850	130.805	-0.469539
10.1867	130.822	-0.469564
10.1883	130.839	-0.469587
10.1900	130.855	-0.469613
10.1917	130.872	-0.469633
10.1933	130.889	-0.469655
10.1950	130.906	-0.469676
10.1967	130.922	-0.469699
10.1983	130.939	-0.469724
10.2000	130.956	-0.469748
10.2017	130.972	-0.469770
10.2033	130.989	-0.469791
10.2050	131.006	-0.469810
10.2067	131.023	-0.469829
10.2083	131.039	-0.469849
10.2100	131.055	-0.469870
10.2117	131.072	-0.469895
10.2133	131.089	-0.469923
10.2150	131.105	-0.469954
10.2167	131.121	-0.470003
10.2183	131.138	-0.470035
10.2200	131.156	-0.470069
10.2217	131.172	-0.470099
10.2233	131.189	-0.470128
10.2250	131.205	-0.470153
10.2267	131.222	-0.470171
10.2283	131.238	-0.470188
10.2300	131.256	-0.470200
10.2317	131.272	-0.470213
10.2333	131.289	-0.470227
10.2350	131.305	-0.470241
10.2367	131.323	-0.470256
10.2383	131.337	-0.470274
10.2400	131.355	-0.470294
10.2417	131.372	-0.470316
10.2433	131.388	-0.470341
10.2450	131.405	-0.470367
10.2467	131.422	-0.470391
10.2483	131.439	-0.470413
10.2500	131.456	-0.470436
10.2517	131.472	-0.470458
10.2533	131.489	-0.470482
10.2550	131.505	-0.470508
10.2567	131.522	-0.470535
10.2583	131.539	-0.470566
10.2600	131.555	-0.470595
10.2617	131.572	-0.470623
10.2633	131.589	-0.470649
10.2650	131.605	-0.470672
10.2667	131.622	-0.470695
10.2683	131.638	-0.470720
10.2700	131.656	-0.470746
10.2717	131.672	-0.470772
10.2733	131.689	-0.470799
10.2750	131.705	-0.470828
10.2767	131.722	-0.470859
10.2783	131.739	-0.470890
10.2800	131.755	-0.470918
10.2817	131.772	-0.470943
10.2833	131.789	-0.470966
10.2850	131.805	-0.470988
10.2867	131.822	-0.471011
10.2883	131.839	-0.471032
10.2900	131.856	-0.471049
10.2917	131.871	-0.471070
10.2933	131.889	-0.471093
10.2950	131.905	-0.471122
10.2967	131.921	-0.471149
10.2983	131.939	-0.471174
10.3000	131.955	-0.471201
10.3017	131.973	-0.471227
10.3033	131.990	-0.471251
10.3050	132.006	-0.471274
10.3067	132.022	-0.471292
10.3083	132.039	-0.471309
10.3100	132.055	-0.471327
10.3117	132.073	-0.471348
10.3133	132.089	-0.471373
10.3150	132.105	-0.471397
10.3167	132.122	-0.471422
10.3183	132.139	-0.471448
10.3200	132.155	-0.471471
10.3217	132.171	-0.471497
10.3233	132.189	-0.471520
10.3250	132.205	-0.471543
10.3267	132.222	-0.471572
10.3283	132.238	-0.471603
10.3300	132.255	-0.471633
10.3317	132.271	-0.471662
10.3333	132.289	-0.471687
10.3350	132.305	-0.471711
10.3367	132.321	-0.471742
10.3383	132.338	-0.471771
10.3400	132.354	-0.471799
10.3417	132.372	-0.471825
10.3433	132.387	-0.471851
10.3450	132.405	-0.471879
10.3467	132.421	-0.471910
10.3483	132.439	-0.471941
10.3500	132.454	-0.471975
10.3517	132.472	-0.472008
10.3533	132.489	-0.472037
10.3550	132.506	-0.472066
10.3567	132.522	-0.472096
10.3583	132.538	-0.472125
10.3600	132.555	-0.472155
10.3617	132.572	-0.472186
10.3633	132.588	-0.472209
10.3650	132.606	-0.472232
10.3667	132.623	-0.472251
10.3683	132.639	-0.472271
10.3700	132.656	-0.472296
10.3717	132.673	-0.472323
10.3733	132.689	-0.472352
10.3750	132.705	-0.472384
10.3767	132.721	-0.472416
10.3783	132.738	-0.472448
10.3800	132.755	-0.472480
10.3817	132.771	-0.472504
10.3833	132.788	-0.472526
10.3850	132.805	-0.472546
10.3867	132.821	-0.472563
10.3883	132.838	-0.472580
10.3900	132.856	-0.472601
10.3917	132.873	-0.472624
10.3933	132.889	-0.472651
10.3950	132.906	-0.472678
10.3967	132.922	-0.472711
10.3983	132.939	-0.472743
10.4000	132.956	-0.472770
10.4017	132.972	-0.472794
10.4033	132.989	-0.472822
10.4050	133.005	-0.472848
10.4067	133.023	-0.472877
10.4083	133.039	-0.472911
10.4100	133.056	-0.472979
10.4117	133.073	-0.473065
10.4133	133.089	-0.473171
10.4150	133.106	-0.473278
10.4167	133.122	-0.473327
10.4183	133.139	-0.473363
10.4200	133.155	-0.473388
10.4217	133.173	-0.473413
10.4233	133.189	-0.473429
10.4250	133.206	-0.473440
10.4267	133.222	-0.473452
10.4283	133.239	-0.473466
10.4300	133.255	-0.473485
10.4317	133.272	-0.473508
10.4333	133.289	-0.473532
10.4350	133.305	-0.473561
10.4367	133.322	-0.473587
10.4383	133.339	-0.473609
10.4400	133.356	-0.473634
10.4417	133.373	-0.473658
10.4433	133.390	-0.473678
10.4450	133.406	-0.473702
10.4467	133.423	-0.473728
10.4483	133.439	-0.473755
10.4500	133.457	-0.473783
10.4517	133.474	-0.473807
10.4533	133.489	-0.473834
10.4550	133.506	-0.473864
10.4567	133.522	-0.473897
10.4583	133.539	-0.473930
10.4600	133.557	-0.473959
10.4617	133.573	-0.473987
10.4633	133.589	-0.474011
10.4650	133.606	-0.474033
10.4667	133.623	-0.474053
10.4683	133.639	-0.474071
10.4700	133.656	-0.474089
10.4717	133.672	-0.474109
10.4733	133.690	-0.474131
10.4750	133.706	-0.474160
10.4767	133.722	-0.474187
10.4783	133.739	-0.474219
10.4800	133.756	-0.474253
10.4817	133.773	-0.474284
10.4833	133.790	-0.474317
10.4850	133.805	-0.474346
10.4867	133.822	-0.474372
10.4883	133.839	-0.474395
10.4900	133.856	-0.474421
10.4917	133.873	-0.474449
10.4933	133.889	-0.474477
10.4950	133.905	-0.474496
10.4967	133.922	-0.474516
10.4983	133.938	-0.474534
10.5000	133.956	-0.474551
10.5017	133.972	-0.474570
10.5033	133.988	-0.474584
10.5050	134.006	-0.474599
10.5067	134.023	-0.474614
10.5083	134.039	-0.474634
10.5100	134.056	-0.474651
10.5117	134.073	-0.474674
10.5133	134.090	-0.474700
10.5150	134.106	-0.474733
10.5167	134.122	-0.474822
10.5183	134.139	-0.474971
10.5200	134.155	-0.475199
10.5217	134.173	-0.475379
10.5233	134.189	-0.475487
10.5250	134.206	-0.475544
10.5267	134.222	-0.475577
10.5283	134.240	-0.475600
10.5300	134.255	-0.475622
10.5317	134.272	-0.475640
10.5333	134.288	-0.475657
10.5350	134.305	-0.475674
10.5367	134.323	-0.475693
10.5383	134.339	-0.475712
10.5400	134.357	-0.475731
10.5417	134.373	-0.475748
10.5433	134.390	-0.475762
10.5450	134.406	-0.475775
10.5467	134.422	-0.475789
10.5483	134.439	-0.475808
10.5500	134.455	-0.475831
10.5517	134.472	-0.475854
10.5533	134.489	-0.475879
10.5550	134.506	-0.475902
10.5567	134.522	-0.475929
10.5583	134.539	-0.475958
10.5600	134.556	-0.475987
10.5617	134.572	-0.476014
10.5633	134.589	-0.476037
10.5650	134.605	-0.476057
10.5667	134.622	-0.476077
10.5683	134.639	-0.476101
10.5700	134.655	-0.476130
10.5717	134.673	-0.476155
10.5733	134.689	-0.476181
10.5750	134.705	-0.476210
10.5767	134.723	-0.476239
10.5783	134.739	-0.476267
10.5800	134.755	-0.476292
10.5817	134.772	-0.476312
10.5833	134.789	-0.476330
10.5850	134.805	-0.476351
10.5867	134.822	-0.476376
10.5883	134.839	-0.476400
10.5900	134.856	-0.476422
10.5917	134.872	-0.476443
10.5933	134.889	-0.476466
10.5950	134.906	-0.476491
10.5967	134.923	-0.476512
10.5983	134.939	-0.476530
10.6000	134.956	-0.476545
10.6017	134.973	-0.476560
10.6033	134.989	-0.476583
10.6050	135.006	-0.476612
10.6067	135.022	-0.476644
10.6083	135.038	-0.476675
10.6100	135.055	-0.476704
10.6117	135.072	-0.476731
10.6133	135.089	-0.476761
10.6150	135.105	-0.476791
10.6167	135.121	-0.476817
10.6183	135.138	-0.476840
10.6200	135.155	-0.476859
10.6217	135.172	-0.476877
10.6233	135.188	-0.476892
10.6250	135.206	-0.476904
10.6267	135.223	-0.476914
10.6283	135.238	-0.476924
10.6300	135.256	-0.476937
10.6317	135.272	-0.476954
10.6333	135.288	-0.476975
10.6350	135.305	-0.477001
10.6367	135.322	-0.477030
10.6383	135.338	-0.477062
10.6400	135.355	-0.477100
10.6417	135.372	-0.477140
10.6433	135.389	-0.477172
10.6450	135.405	-0.477203
10.6467	135.422	-0.477231
10.6483	135.439	-0.477260
10.6500	135.456	-0.477291
10.6517	135.472	-0.477320
10.6533	135.489	-0.477347
10.6550	135.506	-0.477375
10.6567	135.521	-0.477403
10.6583	135.539	-0.477431
10.6600	135.555	-0.477454
10.6617	135.572	-0.477473
10.6633	135.589	-0.477495
10.6650	135.606	-0.477516
10.6667	135.623	-0.477534
10.6683	135.639	-0.477558
10.6700	135.655	-0.477583
10.6717	135.672	-0.477610
10.6733	135.688	-0.477643
10.6750	135.706	-0.477699
10.6767	135.721	-0.477746
10.6783	135.739	-0.477780
10.6800	135.756	-0.477811
10.6817	135.773	-0.477842
10.6833	135.789	-0.477871
10.6850	135.806	-0.477893
10.6867	135.823	-0.477921
10.6883	135.840	-0.477946
10.6900	135.857	-0.477972
10.6917	135.873	-0.477998
10.6933	135.888	-0.478027
10.6950	135.906	-0.478050
10.6967	135.922	-0.478070
10.6983	135.939	-0.478090
10.7000	135.955	-0.478112
10.7017	135.972	-0.478133
10.7033	135.989	-0.478154
10.7050	136.006	-0.478178
10.7067	136.022	-0.478204
10.7083	136.039	-0.478229
10.7100	136.055	-0.478261
10.7117	136.072	-0.478295
10.7133	136.090	-0.478331
10.7150	136.105	-0.478367
10.7167	136.123	-0.478413
10.7183	136.139	-0.478471
10.7200	136.156	-0.478518
10.7217	136.173	-0.478567
10.7233	136.189	-0.478613
10.7250	136.206	-0.478647
10.7267	136.223	-0.478677
10.7283	136.239	-0.478708
10.7300	136.255	-0.478733
10.7317	136.273	-0.478757
10.7333	136.290	-0.478779
10.7350	136.306	-0.478802
10.7367	136.323	-0.478827
10.7383	136.339	-0.478849
10.7400	136.356	-0.478873
10.7417	136.373	-0.478902
10.7433	136.389	-0.478930
10.7450	136.406	-0.478956
10.7467	136.423	-0.478984
10.7483	136.440	-0.479009
10.7500	136.456	-0.479042
10.7517	136.473	-0.479073
10.7533	136.490	-0.479100
10.7550	136.506	-0.479128
10.7567	136.522	-0.479153
10.7583	136.540	-0.479178
10.7600	136.556	-0.479208
10.7617	136.573	-0.479235
10.7633	136.590	-0.479261
10.7650	136.607	-0.479286
10.7667	136.623	-0.479306
10.7683	136.640	-0.479330
10.7700	136.656	-0.479351
10.7717	136.673	-0.479372
10.7733	136.689	-0.479394
10.7750	136.706	-0.479417
10.7767	136.723	-0.479441
10.7783	136.738	-0.479469
10.7800	136.756	-0.479496
10.7817	136.772	-0.479522
10.7833	136.790	-0.479547
10.7850	136.805	-0.479572
10.7867	136.824	-0.479595
10.7883	136.840	-0.479618
10.7900	136.856	-0.479641
10.7917	136.873	-0.479669
10.7933	136.889	-0.479699
10.7950	136.906	-0.479727
10.7967	136.923	-0.479760
10.7983	136.940	-0.479793
10.8000	136.956	-0.479825
10.8017	136.974	-0.479853
10.8033	136.990	-0.479884
10.8050	137.007	-0.479912
10.8067	137.023	-0.479940
10.8083	137.040	-0.479967
10.8100	137.056	-0.479999
10.8117	137.073	-0.480033
10.8133	137.089	-0.480070
10.8150	137.105	-0.480102
10.8167	137.123	-0.480129
10.8183	137.139	-0.480158
10.8200	137.156	-0.480181
10.8217	137.173	-0.480206
10.8233	137.190	-0.480229
10.8250	137.207	-0.480252
10.8267	137.223	-0.480273
10.8283	137.240	-0.480295
10.8300	137.256	-0.480320
10.8317	137.273	-0.480349
10.8333	137.289	-0.480380
10.8350	137.307	-0.480410
10.8367	137.323	-0.480436
10.8383	137.340	-0.480463
10.8400	137.356	-0.480489
10.8417	137.372	-0.480514
10.8433	137.389	-0.480536
10.8450	137.406	-0.480559
10.8467	137.422	-0.480583
10.8483	137.439	-0.480612
10.8500	137.455	-0.480647
10.8517	137.472	-0.480707
10.8533	137.489	-0.480742
10.8550	137.506	-0.480778
10.8567	137.522	-0.480814
10.8583	137.540	-0.480847
10.8600	137.556	-0.480876
10.8617	137.573	-0.480901
10.8633	137.590	-0.480922
10.8650	137.606	-0.480944
10.8667	137.624	-0.480964
10.8683	137.640	-0.480989
10.8700	137.657	-0.481014
10.8717	137.673	-0.481036
10.8733	137.690	-0.481060
10.8750	137.706	-0.481085
10.8767	137.723	-0.481114
10.8783	137.739	-0.481139
10.8800	137.756	-0.481163
10.8817	137.774	-0.481185
10.8833	137.790	-0.481207
10.8850	137.806	-0.481231
10.8867	137.823	-0.481255
10.8883	137.839	-0.481276
10.8900	137.856	-0.481293
10.8917	137.872	-0.481311
10.8933	137.888	
10.8950	137.905	
10.8967	137.922	
10.8983	137.938	
10.9000	137.956	
10.9017	137.972	
10.9033	137.989	
10.9050	138.005	
10.9067	138.021	
10.9083	138.038	
10.9100	138.056	
10.9117	138.073	
10.9133	138.088	
10.9150	138.106	
10.9167	138.123	
10.9183	138.139	
10.9200	138.155	
10.9217	138.173	
10.9233	138.189	
10.9250	138.206	
10.9267	138.223	
10.9283	138.240	
10.9300	138.257	
10.9317	138.272	
10.9333	138.289	
10.9350	138.307	
10.9367	138.323	
10.9383	138.340	
10.9400	138.356	
10.9417	138.372	
10.9433		
10.9450		
10.9467		
10.9483		
10.9500		

