Filename	5-chloro-2-nitrobenzoic acid
Instrument name	DSC2A-00807 (172.23.165.2)
Operator	
rundate	5/21/2019
Sample name	5-chloro-2-nitrobenzoic acid
proceduresegments	Ramp 10 °C/min to 160.00 °C
[step]
Ramp 10 °C/min to 160.00 °C
Time	Temperature	Heat Flow (Normalized)
min	°C	W/g
0.00000		
1.66667e-3		
3.33333e-3		
5.00000e-3		
6.66667e-3		
8.33333e-3	30.252	
0.0100000	30.256	
0.0116667	30.260	
0.0133333	30.263	
0.0150000	30.267	
0.0166667	30.270	
0.0183333	30.273	
0.0200000	30.276	
0.0216667	30.279	
0.0233333	30.284	
0.0250000	30.287	
0.0266667	30.290	
0.0283333	30.294	
0.0300000	30.297	
0.0316667	30.300	
0.0333333	30.304	
0.0350000	30.308	
0.0366667	30.312	
0.0383333	30.315	
0.0400000	30.319	
0.0416667	30.323	
0.0433333	30.327	
0.0450000	30.331	
0.0466667	30.335	
0.0483333	30.338	
0.0500000	30.344	
0.0516667	30.348	
0.0533333	30.352	
0.0550000	30.357	
0.0566667	30.360	
0.0583333	30.365	-0.259751
0.0600000	30.370	-0.259724
0.0616667	30.374	-0.259538
0.0633333	30.379	-0.259005
0.0650000	30.386	-0.257860
0.0666667	30.391	-0.256045
0.0683333	30.397	-0.253759
0.0700000	30.402	-0.251148
0.0716667	30.407	-0.248779
0.0733333	30.414	-0.246882
0.0750000	30.419	-0.245152
0.0766667	30.426	-0.243526
0.0783333	30.432	-0.242097
0.0800000	30.440	-0.240842
0.0816667	30.446	-0.240036
0.0833333	30.453	-0.239489
0.0850000	30.460	-0.238966
0.0866667	30.467	-0.238493
0.0883333	30.475	-0.238112
0.0900000	30.483	-0.237940
0.0916667	30.490	-0.237833
0.0933333	30.499	-0.237671
0.0950000	30.506	-0.237514
0.0966667	30.515	-0.237375
0.0983333	30.523	-0.237383
0.100000	30.532	-0.237533
0.101667	30.540	-0.237672
0.103333	30.549	-0.237759
0.105000	30.559	-0.237832
0.106667	30.568	-0.237876
0.108333	30.577	-0.237949
0.110000	30.588	-0.238046
0.111667	30.597	-0.238489
0.113333	30.607	-0.238840
0.115000	30.617	-0.239122
0.116667	30.626	-0.239355
0.118333	30.637	-0.239522
0.120000	30.647	-0.239598
0.121667	30.657	-0.239693
0.123333	30.667	-0.239842
0.125000	30.679	-0.240005
0.126667	30.689	-0.240201
0.128333	30.701	-0.240371
0.130000	30.711	-0.240553
0.131667	30.723	-0.240732
0.133333	30.735	-0.240904
0.135000	30.746	-0.241118
0.136667	30.757	-0.241320
0.138333	30.769	-0.241537
0.140000	30.780	-0.241813
0.141667	30.792	-0.242318
0.143333	30.804	-0.242875
0.145000	30.815	-0.243547
0.146667	30.827	-0.244330
0.148333	30.839	-0.244983
0.150000	30.851	-0.245574
0.151667	30.863	-0.246155
0.153333	30.875	-0.246795
0.155000	30.888	-0.247302
0.156667	30.900	-0.247837
0.158333	30.912	-0.248170
0.160000	30.924	-0.248389
0.161667	30.937	-0.248598
0.163333	30.949	-0.248756
0.165000	30.962	-0.248904
0.166667	30.975	-0.249045
0.168333	30.987	-0.249225
0.170000	30.999	-0.249384
0.171667	31.013	-0.249549
0.173333	31.027	-0.249753
0.175000	31.038	-0.249970
0.176667	31.051	-0.250145
0.178333	31.063	-0.250309
0.180000	31.076	-0.250449
0.181667	31.089	-0.250506
0.183333	31.101	-0.250531
0.185000	31.115	-0.250573
0.186667	31.128	-0.250599
0.188333	31.141	-0.250622
0.190000	31.154	-0.250662
0.191667	31.166	-0.250716
0.193333	31.180	-0.250771
0.195000	31.193	-0.250817
0.196667	31.206	-0.250902
0.198333	31.220	-0.250994
0.200000	31.233	-0.251029
0.201667	31.246	-0.251057
0.203333	31.260	-0.251074
0.205000	31.274	-0.251086
0.206667	31.286	-0.251093
0.208333	31.300	-0.251096
0.210000	31.313	-0.251102
0.211667	31.327	-0.251109
0.213333	31.341	-0.251116
0.215000	31.354	-0.251118
0.216667	31.367	-0.251115
0.218333	31.381	-0.251111
0.220000	31.394	-0.251101
0.221667	31.408	-0.251095
0.223333	31.421	-0.251084
0.225000	31.435	-0.251079
0.226667	31.449	-0.251078
0.228333	31.463	-0.251081
0.230000	31.477	-0.251086
0.231667	31.491	-0.251091
0.233333	31.505	-0.251093
0.235000	31.519	-0.251092
0.236667	31.533	-0.251088
0.238333	31.547	-0.251076
0.240000	31.561	-0.251047
0.241667	31.576	-0.250987
0.243333	31.589	-0.250916
0.245000	31.602	-0.250847
0.246667	31.617	-0.250795
0.248333	31.631	-0.250736
0.250000	31.645	-0.250679
0.251667	31.660	-0.250597
0.253333	31.674	-0.250502
0.255000	31.687	-0.250406
0.256667	31.703	-0.250317
0.258333	31.718	-0.250204
0.260000	31.731	-0.250093
0.261667	31.746	-0.249933
0.263333	31.761	-0.249727
0.265000	31.774	-0.249466
0.266667	31.788	-0.249268
0.268333	31.804	-0.249124
0.270000	31.817	-0.249042
0.271667	31.833	-0.248999
0.273333	31.848	-0.248981
0.275000	31.861	-0.248947
0.276667	31.877	-0.248929
0.278333	31.892	-0.248912
0.280000	31.906	-0.248883
0.281667	31.920	-0.248817
0.283333	31.934	-0.248731
0.285000	31.950	-0.248590
0.286667	31.965	-0.248376
0.288333	31.980	-0.248167
0.290000	31.995	-0.247985
0.291667	32.010	-0.247759
0.293333	32.025	-0.247547
0.295000	32.040	-0.247334
0.296667	32.055	-0.247083
0.298333	32.070	-0.246821
0.300000	32.085	-0.246574
0.301667	32.100	-0.246311
0.303333	32.115	-0.246049
0.305000	32.129	-0.245795
0.306667	32.145	-0.245511
0.308333	32.160	-0.245194
0.310000	32.175	-0.244930
0.311667	32.191	-0.244659
0.313333	32.205	-0.244362
0.315000	32.220	-0.244007
0.316667	32.235	-0.243500
0.318333	32.251	-0.242953
0.320000	32.266	-0.242238
0.321667	32.280	-0.241557
0.323333	32.296	-0.240889
0.325000	32.311	-0.240375
0.326667	32.327	-0.239840
0.328333	32.341	-0.239409
0.330000	32.357	-0.239095
0.331667	32.373	-0.238789
0.333333	32.389	-0.238480
0.335000	32.405	-0.238119
0.336667	32.420	-0.237664
0.338333	32.435	-0.237214
0.340000	32.451	-0.236742
0.341667	32.466	-0.236307
0.343333	32.481	-0.236002
0.345000	32.497	-0.235698
0.346667	32.511	-0.235443
0.348333	32.527	-0.235201
0.350000	32.543	-0.234970
0.351667	32.559	-0.234618
0.353333	32.574	-0.233978
0.355000	32.590	-0.233260
0.356667	32.605	-0.232585
0.358333	32.620	-0.231928
0.360000	32.637	-0.231302
0.361667	32.652	-0.230884
0.363333	32.667	-0.230470
0.365000	32.683	-0.230101
0.366667	32.698	-0.229867
0.368333	32.714	-0.229665
0.370000	32.729	-0.229482
0.371667	32.745	-0.229272
0.373333	32.761	-0.229001
0.375000	32.777	-0.228752
0.376667	32.792	-0.228487
0.378333	32.809	-0.228263
0.380000	32.823	-0.228068
0.381667	32.839	-0.227788
0.383333	32.855	-0.227380
0.385000	32.870	-0.226906
0.386667	32.887	-0.226326
0.388333	32.902	-0.225562
0.390000	32.919	-0.224724
0.391667	32.934	-0.223769
0.393333	32.950	-0.222904
0.395000	32.965	-0.222336
0.396667	32.981	-0.222012
0.398333	32.997	-0.221753
0.400000	33.013	-0.221552
0.401667	33.029	-0.221300
0.403333	33.046	-0.221009
0.405000	33.061	-0.220589
0.406667	33.076	-0.220105
0.408333	33.092	-0.219641
0.410000	33.108	-0.219109
0.411667	33.123	-0.218641
0.413333	33.139	-0.218247
0.415000	33.156	-0.217959
0.416667	33.172	-0.217705
0.418333	33.187	-0.217504
0.420000	33.202	-0.217345
0.421667	33.219	-0.217142
0.423333	33.235	-0.216933
0.425000	33.251	-0.216698
0.426667	33.268	-0.216316
0.428333	33.283	-0.215873
0.430000	33.298	-0.215518
0.431667	33.315	-0.215275
0.433333	33.330	-0.215066
0.435000	33.347	-0.214842
0.436667	33.362	-0.214675
0.438333	33.379	-0.214556
0.440000	33.395	-0.214432
0.441667	33.411	-0.214275
0.443333	33.427	-0.214046
0.445000	33.444	-0.213699
0.446667	33.459	-0.213137
0.448333	33.475	-0.212482
0.450000	33.491	-0.211962
0.451667	33.507	-0.211539
0.453333	33.524	-0.211160
0.455000	33.541	-0.210686
0.456667	33.556	-0.210045
0.458333	33.572	-0.209639
0.460000	33.589	-0.209354
0.461667	33.605	-0.209139
0.463333	33.622	-0.208968
0.465000	33.638	-0.208737
0.466667	33.653	-0.208490
0.468333	33.670	-0.208395
0.470000	33.686	-0.208344
0.471667	33.702	-0.208301
0.473333	33.718	-0.208246
0.475000	33.733	-0.208050
0.476667	33.749	-0.207828
0.478333	33.766	-0.207675
0.480000	33.782	-0.207515
0.481667	33.798	-0.207348
0.483333	33.814	-0.207078
0.485000	33.830	-0.206706
0.486667	33.846	-0.206449
0.488333	33.863	-0.206147
0.490000	33.879	-0.205763
0.491667	33.896	-0.205374
0.493333	33.912	-0.204777
0.495000	33.928	-0.204285
0.496667	33.944	-0.204049
0.498333	33.960	-0.203872
0.500000	33.976	-0.203727
0.501667	33.993	-0.203596
0.503333	34.008	-0.203488
0.505000	34.025	-0.203406
0.506667	34.042	-0.203297
0.508333	34.058	-0.203073
0.510000	34.073	-0.202782
0.511667	34.090	-0.202295
0.513333	34.107	-0.201862
0.515000	34.123	-0.201196
0.516667	34.139	-0.200543
0.518333	34.156	-0.199823
0.520000	34.172	-0.199188
0.521667	34.189	-0.198712
0.523333	34.205	-0.198279
0.525000	34.220	-0.197791
0.526667	34.236	-0.197427
0.528333	34.254	-0.197203
0.530000	34.269	-0.197112
0.531667	34.286	-0.197071
0.533333	34.303	-0.197032
0.535000	34.319	-0.197028
0.536667	34.334	-0.197018
0.538333	34.351	-0.197012
0.540000	34.367	-0.196997
0.541667	34.383	-0.196955
0.543333	34.400	-0.196805
0.545000	34.416	-0.196649
0.546667	34.433	-0.196539
0.548333	34.449	-0.196459
0.550000	34.465	-0.196333
0.551667	34.482	-0.196230
0.553333	34.498	-0.196177
0.555000	34.516	-0.196089
0.556667	34.530	-0.195992
0.558333	34.547	-0.195912
0.560000	34.564	-0.195777
0.561667	34.579	-0.195580
0.563333	34.597	-0.195432
0.565000	34.613	-0.195313
0.566667	34.630	-0.195261
0.568333	34.646	-0.195200
0.570000	34.661	-0.195138
0.571667	34.678	-0.195107
0.573333	34.694	-0.195059
0.575000	34.711	-0.195008
0.576667	34.727	-0.194953
0.578333	34.744	-0.194829
0.580000	34.760	-0.194657
0.581667	34.776	-0.194393
0.583333	34.793	-0.194158
0.585000	34.810	-0.193968
0.586667	34.827	-0.193779
0.588333	34.842	-0.193581
0.590000	34.860	-0.193457
0.591667	34.875	-0.193352
0.593333	34.892	-0.193289
0.595000	34.908	-0.193257
0.596667	34.925	-0.193228
0.598333	34.941	-0.193187
0.600000	34.957	-0.193152
0.601667	34.973	-0.193123
0.603333	34.990	-0.193099
0.605000	35.007	-0.193084
0.606667	35.022	-0.193002
0.608333	35.040	-0.192991
0.610000	35.056	-0.192969
0.611667	35.072	-0.192935
0.613333	35.088	-0.192901
0.615000	35.105	-0.192823
0.616667	35.121	-0.192714
0.618333	35.138	-0.192558
0.620000	35.155	-0.192341
0.621667	35.170	-0.192118
0.623333	35.187	-0.191937
0.625000	35.203	-0.191833
0.626667	35.220	-0.191742
0.628333	35.237	-0.191661
0.630000	35.253	-0.191610
0.631667	35.270	-0.191554
0.633333	35.286	-0.191484
0.635000	35.302	-0.191430
0.636667	35.319	-0.191360
0.638333	35.335	-0.191267
0.640000	35.351	-0.191170
0.641667	35.368	-0.191040
0.643333	35.384	-0.190991
0.645000	35.401	-0.190955
0.646667	35.417	-0.190873
0.648333	35.434	-0.190836
0.650000	35.450	-0.190816
0.651667	35.467	-0.190780
0.653333	35.483	-0.190737
0.655000	35.499	-0.190720
0.656667	35.516	-0.190670
0.658333	35.533	-0.190650
0.660000	35.550	-0.190598
0.661667	35.567	-0.190532
0.663333	35.583	-0.190472
0.665000	35.600	-0.190450
0.666667	35.616	-0.190429
0.668333	35.632	-0.190410
0.670000	35.649	-0.190387
0.671667	35.665	-0.190364
0.673333	35.682	-0.190344
0.675000	35.698	-0.190308
0.676667	35.714	-0.190276
0.678333	35.731	-0.190258
0.680000	35.747	-0.190237
0.681667	35.764	-0.190213
0.683333	35.780	-0.190159
0.685000	35.796	-0.190110
0.686667	35.813	-0.190071
0.688333	35.829	-0.190037
0.690000	35.846	-0.190003
0.691667	35.862	-0.189978
0.693333	35.880	-0.189960
0.695000	35.895	-0.189949
0.696667	35.912	-0.189943
0.698333	35.929	-0.189939
0.700000	35.945	-0.189936
0.701667	35.961	-0.189926
0.703333	35.978	-0.189912
0.705000	35.995	-0.189895
0.706667	36.011	-0.189877
0.708333	36.028	-0.189855
0.710000	36.044	-0.189834
0.711667	36.061	-0.189813
0.713333	36.078	-0.189792
0.715000	36.095	-0.189777
0.716667	36.111	-0.189763
0.718333	36.128	-0.189751
0.720000	36.144	-0.189740
0.721667	36.160	-0.189732
0.723333	36.177	-0.189721
0.725000	36.193	-0.189710
0.726667	36.210	-0.189701
0.728333	36.226	-0.189692
0.730000	36.243	-0.189682
0.731667	36.259	-0.189671
0.733333	36.275	-0.189660
0.735000	36.293	-0.189649
0.736667	36.309	-0.189636
0.738333	36.326	-0.189625
0.740000	36.341	-0.189618
0.741667	36.358	-0.189610
0.743333	36.374	-0.189603
0.745000	36.391	-0.189598
0.746667	36.409	-0.189596
0.748333	36.424	-0.189595
0.750000	36.442	-0.189593
0.751667	36.459	-0.189590
0.753333	36.475	-0.189588
0.755000	36.491	-0.189582
0.756667	36.507	-0.189579
0.758333	36.524	-0.189576
0.760000	36.541	-0.189576
0.761667	36.557	-0.189580
0.763333	36.573	-0.189593
0.765000	36.590	-0.189629
0.766667	36.606	-0.189684
0.768333	36.623	-0.189731
0.770000	36.640	-0.189806
0.771667	36.657	-0.189832
0.773333	36.673	-0.189840
0.775000	36.690	-0.189849
0.776667	36.707	-0.189853
0.778333	36.723	-0.189853
0.780000	36.740	-0.189853
0.781667	36.757	-0.189857
0.783333	36.773	-0.189860
0.785000	36.789	-0.189866
0.786667	36.805	-0.189875
0.788333	36.822	-0.189906
0.790000	36.839	-0.189922
0.791667	36.856	-0.189940
0.793333	36.873	-0.189971
0.795000	36.890	-0.189992
0.796667	36.906	-0.190004
0.798333	36.922	-0.190012
0.800000	36.939	-0.190019
0.801667	36.955	-0.190028
0.803333	36.971	-0.190035
0.805000	36.989	-0.190043
0.806667	37.005	-0.190055
0.808333	37.022	-0.190068
0.810000	37.038	-0.190086
0.811667	37.055	-0.190135
0.813333	37.071	-0.190256
0.815000	37.087	-0.190397
0.816667	37.104	-0.190518
0.818333	37.121	-0.190585
0.820000	37.137	-0.190625
0.821667	37.154	-0.190671
0.823333	37.171	-0.190691
0.825000	37.188	-0.190708
0.826667	37.205	-0.190725
0.828333	37.221	-0.190744
0.830000	37.238	-0.190782
0.831667	37.254	-0.190889
0.833333	37.270	-0.191006
0.835000	37.288	-0.191153
0.836667	37.303	-0.191303
0.838333	37.320	-0.191506
0.840000	37.337	-0.191747
0.841667	37.353	-0.191919
0.843333	37.369	-0.192096
0.845000	37.386	-0.192191
0.846667	37.403	-0.192304
0.848333	37.419	-0.192451
0.850000	37.437	-0.192647
0.851667	37.452	-0.192805
0.853333	37.469	-0.192931
0.855000	37.487	-0.193069
0.856667	37.502	-0.193234
0.858333	37.518	-0.193602
0.860000	37.535	-0.193974
0.861667	37.552	-0.194304
0.863333	37.568	-0.194682
0.865000	37.585	-0.194996
0.866667	37.602	-0.195355
0.868333	37.617	-0.195768
0.870000	37.634	-0.196268
0.871667	37.652	-0.196758
0.873333	37.667	-0.197235
0.875000	37.685	-0.197795
0.876667	37.702	-0.198532
0.878333	37.717	-0.199143
0.880000	37.734	-0.199624
0.881667	37.751	-0.199996
0.883333	37.766	-0.200268
0.885000	37.784	-0.200398
0.886667	37.801	-0.200495
0.888333	37.817	-0.200630
0.890000	37.834	-0.200751
0.891667	37.850	-0.200923
0.893333	37.867	-0.201147
0.895000	37.885	-0.201466
0.896667	37.902	-0.201864
0.898333	37.917	-0.202329
0.900000	37.933	-0.202855
0.901667	37.950	-0.203290
0.903333	37.966	-0.203679
0.905000	37.983	-0.203969
0.906667	38.000	-0.204322
0.908333	38.017	-0.204591
0.910000	38.034	-0.204836
0.911667	38.050	-0.205231
0.913333	38.067	-0.205510
0.915000	38.084	-0.205735
0.916667	38.100	-0.205977
0.918333	38.116	-0.206396
0.920000	38.133	-0.206816
0.921667	38.149	-0.207319
0.923333	38.166	-0.207910
0.925000	38.182	-0.208461
0.926667	38.199	-0.208799
0.928333	38.216	-0.209423
0.930000	38.233	-0.210106
0.931667	38.249	-0.210562
0.933333	38.266	-0.210895
0.935000	38.283	-0.211222
0.936667	38.299	-0.211669
0.938333	38.314	-0.212049
0.940000	38.331	-0.212485
0.941667	38.348	-0.212825
0.943333	38.365	-0.213126
0.945000	38.381	-0.213339
0.946667	38.399	-0.213635
0.948333	38.415	-0.213885
0.950000	38.431	-0.214193
0.951667	38.449	-0.214552
0.953333	38.465	-0.214818
0.955000	38.482	-0.215117
0.956667	38.499	-0.215379
0.958333	38.515	-0.215611
0.960000	38.532	-0.215757
0.961667	38.548	-0.215854
0.963333	38.564	-0.215963
0.965000	38.581	-0.216070
0.966667	38.598	-0.216162
0.968333	38.614	-0.216361
0.970000	38.632	-0.216669
0.971667	38.648	-0.217119
0.973333	38.665	-0.217709
0.975000	38.681	-0.218453
0.976667	38.698	-0.219449
0.978333	38.715	-0.220243
0.980000	38.731	-0.220927
0.981667	38.748	-0.221425
0.983333	38.764	-0.221668
0.985000	38.781	-0.221762
0.986667	38.797	-0.221798
0.988333	38.814	-0.221799
0.990000	38.831	-0.221839
0.991667	38.847	-0.221906
0.993333	38.864	-0.222026
0.995000	38.880	-0.222323
0.996667	38.897	-0.222734
0.998333	38.914	-0.223129
1.00000	38.931	-0.223487
1.00167	38.947	-0.223757
1.00333	38.964	-0.224013
1.00500	38.981	-0.224219
1.00667	38.997	-0.224291
1.00833	39.015	-0.224370
1.01000	39.032	-0.224422
1.01167	39.047	-0.224445
1.01333	39.064	-0.224481
1.01500	39.081	-0.224550
1.01667	39.098	-0.224646
1.01833	39.113	-0.224766
1.02000	39.129	-0.225008
1.02167	39.146	-0.225412
1.02333	39.163	-0.225773
1.02500	39.180	-0.226178
1.02667	39.196	-0.226699
1.02833	39.214	-0.227077
1.03000	39.230	-0.227309
1.03167	39.247	-0.227494
1.03333	39.264	-0.227686
1.03500	39.280	-0.227804
1.03667	39.297	-0.227881
1.03833	39.313	-0.227955
1.04000	39.329	-0.228025
1.04167	39.347	-0.228083
1.04333	39.363	-0.228155
1.04500	39.380	-0.228243
1.04667	39.396	-0.228320
1.04833	39.413	-0.228469
1.05000	39.430	-0.228669
1.05167	39.446	-0.228960
1.05333	39.463	-0.229225
1.05500	39.479	-0.229416
1.05667	39.496	-0.229650
1.05833	39.512	-0.229848
1.06000	39.530	-0.230106
1.06167	39.547	-0.230242
1.06333	39.563	-0.230296
1.06500	39.580	-0.230313
1.06667	39.597	-0.230327
1.06833	39.613	-0.230341
1.07000	39.629	-0.230363
1.07167	39.646	-0.230388
1.07333	39.663	-0.230408
1.07500	39.679	-0.230447
1.07667	39.696	-0.230518
1.07833	39.712	-0.230650
1.08000	39.728	-0.230749
1.08167	39.744	-0.230834
1.08333	39.762	-0.230898
1.08500	39.779	-0.230983
1.08667	39.795	-0.231061
1.08833	39.813	-0.231132
1.09000	39.828	-0.231214
1.09167	39.845	-0.231323
1.09333	39.863	-0.231503
1.09500	39.879	-0.231688
1.09667	39.895	-0.231929
1.09833	39.911	-0.232195
1.10000	39.928	-0.232401
1.10167	39.945	-0.232551
1.10333	39.961	-0.232711
1.10500	39.977	-0.232857
1.10667	39.995	-0.232954
1.10833	40.011	-0.233015
1.11000	40.027	-0.233061
1.11167	40.044	-0.233089
1.11333	40.061	-0.233120
1.11500	40.077	-0.233155
1.11667	40.094	-0.233179
1.11833	40.110	-0.233214
1.12000	40.127	-0.233280
1.12167	40.144	-0.233427
1.12333	40.162	-0.233672
1.12500	40.178	-0.233921
1.12667	40.195	-0.234177
1.12833	40.211	-0.234442
1.13000	40.228	-0.234644
1.13167	40.245	-0.234747
1.13333	40.261	-0.234807
1.13500	40.277	-0.234848
1.13667	40.294	-0.234867
1.13833	40.311	-0.234940
1.14000	40.327	-0.235039
1.14167	40.344	-0.235110
1.14333	40.361	-0.235172
1.14500	40.377	-0.235217
1.14667	40.394	-0.235233
1.14833	40.411	-0.235253
1.15000	40.427	-0.235270
1.15167	40.444	-0.235287
1.15333	40.461	-0.235308
1.15500	40.477	-0.235339
1.15667	40.494	-0.235418
1.15833	40.511	-0.235483
1.16000	40.526	-0.235534
1.16167	40.544	-0.235564
1.16333	40.561	-0.235591
1.16500	40.577	-0.235615
1.16667	40.594	-0.235672
1.16833	40.609	-0.235725
1.17000	40.627	-0.235771
1.17167	40.643	-0.235789
1.17333	40.660	-0.235810
1.17500	40.677	-0.235833
1.17667	40.693	-0.235884
1.17833	40.710	-0.235955
1.18000	40.726	-0.236032
1.18167	40.744	-0.236104
1.18333	40.759	-0.236200
1.18500	40.776	-0.236257
1.18667	40.794	-0.236300
1.18833	40.809	-0.236324
1.19000	40.826	-0.236389
1.19167	40.843	-0.236445
1.19333	40.860	-0.236475
1.19500	40.876	-0.236495
1.19667	40.893	-0.236516
1.19833	40.909	-0.236541
1.20000	40.926	-0.236567
1.20167	40.943	-0.236627
1.20333	40.959	-0.236694
1.20500	40.975	-0.236796
1.20667	40.992	-0.236899
1.20833	41.009	-0.237015
1.21000	41.026	-0.237088
1.21167	41.043	-0.237155
1.21333	41.059	-0.237217
1.21500	41.077	-0.237269
1.21667	41.092	-0.237298
1.21833	41.109	-0.237322
1.22000	41.126	-0.237341
1.22167	41.143	-0.237360
1.22333	41.160	-0.237381
1.22500	41.175	-0.237406
1.22667	41.192	-0.237433
1.22833	41.209	-0.237460
1.23000	41.226	-0.237486
1.23167	41.243	-0.237511
1.23333	41.259	-0.237536
1.23500	41.276	-0.237563
1.23667	41.293	-0.237588
1.23833	41.309	-0.237613
1.24000	41.326	-0.237637
1.24167	41.343	-0.237662
1.24333	41.359	-0.237687
1.24500	41.375	-0.237715
1.24667	41.390	-0.237740
1.24833	41.408	-0.237767
1.25000	41.425	-0.237794
1.25167	41.441	-0.237821
1.25333	41.458	-0.237853
1.25500	41.475	-0.237917
1.25667	41.491	-0.237985
1.25833	41.508	-0.238042
1.26000	41.525	-0.238078
1.26167	41.542	-0.238112
1.26333	41.559	-0.238164
1.26500	41.575	-0.238196
1.26667	41.593	-0.238227
1.26833	41.609	-0.238260
1.27000	41.625	-0.238287
1.27167	41.642	-0.238316
1.27333	41.659	-0.238344
1.27500	41.676	-0.238370
1.27667	41.693	-0.238397
1.27833	41.709	-0.238422
1.28000	41.726	-0.238456
1.28167	41.742	-0.238491
1.28333	41.759	-0.238536
1.28500	41.775	-0.238596
1.28667	41.792	-0.238655
1.28833	41.808	-0.238691
1.29000	41.825	-0.238724
1.29167	41.841	-0.238757
1.29333	41.858	-0.238785
1.29500	41.874	-0.238812
1.29667	41.891	-0.238841
1.29833	41.907	-0.238873
1.30000	41.924	-0.238904
1.30167	41.941	-0.238940
1.30333	41.958	-0.238985
1.30500	41.974	-0.239016
1.30667	41.992	-0.239043
1.30833	42.008	-0.239066
1.31000	42.024	-0.239091
1.31167	42.042	-0.239115
1.31333	42.058	-0.239140
1.31500	42.074	-0.239169
1.31667	42.091	-0.239198
1.31833	42.108	-0.239229
1.32000	42.125	-0.239265
1.32167	42.141	-0.239318
1.32333	42.158	-0.239354
1.32500	42.174	-0.239389
1.32667	42.191	-0.239423
1.32833	42.208	-0.239456
1.33000	42.225	-0.239488
1.33167	42.240	-0.239520
1.33333	42.257	-0.239556
1.33500	42.274	-0.239590
1.33667	42.291	-0.239620
1.33833	42.307	-0.239647
1.34000	42.324	-0.239677
1.34167	42.341	-0.239710
1.34333	42.358	-0.239755
1.34500	42.375	-0.239829
1.34667	42.391	-0.239869
1.34833	42.408	-0.239902
1.35000	42.424	-0.239934
1.35167	42.442	-0.239965
1.35333	42.458	-0.239992
1.35500	42.474	-0.240011
1.35667	42.492	-0.240025
1.35833	42.508	-0.240040
1.36000	42.525	-0.240060
1.36167	42.541	-0.240086
1.36333	42.557	-0.240117
1.36500	42.575	-0.240149
1.36667	42.591	-0.240183
1.36833	42.607	-0.240254
1.37000	42.624	-0.240307
1.37167	42.641	-0.240343
1.37333	42.658	-0.240376
1.37500	42.674	-0.240408
1.37667	42.691	-0.240439
1.37833	42.707	-0.240469
1.38000	42.724	-0.240497
1.38167	42.741	-0.240524
1.38333	42.758	-0.240550
1.38500	42.774	-0.240576
1.38667	42.791	-0.240602
1.38833	42.807	-0.240629
1.39000	42.824	-0.240654
1.39167	42.840	-0.240682
1.39333	42.858	-0.240713
1.39500	42.874	-0.240750
1.39667	42.891	-0.240795
1.39833	42.908	-0.240833
1.40000	42.925	-0.240867
1.40167	42.942	-0.240902
1.40333	42.958	-0.240934
1.40500	42.974	-0.240965
1.40667	42.990	-0.240997
1.40833	43.008	-0.241030
1.41000	43.024	-0.241065
1.41167	43.041	-0.241098
1.41333	43.057	-0.241133
1.41500	43.074	-0.241168
1.41667	43.090	-0.241199
1.41833	43.108	-0.241226
1.42000	43.125	-0.241249
1.42167	43.141	-0.241268
1.42333	43.157	-0.241285
1.42500	43.174	-0.241301
1.42667	43.191	-0.241316
1.42833	43.207	-0.241333
1.43000	43.224	-0.241352
1.43167	43.241	-0.241373
1.43333	43.258	-0.241394
1.43500	43.274	-0.241413
1.43667	43.290	-0.241437
1.43833	43.308	-0.241465
1.44000	43.324	-0.241494
1.44167	43.341	-0.241528
1.44333	43.357	-0.241584
1.44500	43.374	-0.241617
1.44667	43.391	-0.241653
1.44833	43.407	-0.241689
1.45000	43.424	-0.241725
1.45167	43.440	-0.241757
1.45333	43.457	-0.241782
1.45500	43.474	-0.241806
1.45667	43.491	-0.241831
1.45833	43.507	-0.241858
1.46000	43.524	-0.241885
1.46167	43.539	-0.241912
1.46333	43.556	-0.241935
1.46500	43.573	-0.241961
1.46667	43.590	-0.241986
1.46833	43.607	-0.242014
1.47000	43.623	-0.242039
1.47167	43.641	-0.242064
1.47333	43.656	-0.242082
1.47500	43.674	-0.242094
1.47667	43.690	-0.242110
1.47833	43.707	-0.242130
1.48000	43.722	-0.242147
1.48167	43.739	-0.242160
1.48333	43.756	-0.242176
1.48500	43.773	-0.242192
1.48667	43.790	-0.242207
1.48833	43.806	-0.242227
1.49000	43.823	-0.242253
1.49167	43.840	-0.242280
1.49333	43.856	-0.242302
1.49500	43.873	-0.242326
1.49667	43.890	-0.242352
1.49833	43.906	-0.242376
1.50000	43.923	-0.242401
1.50167	43.940	-0.242427
1.50333	43.957	-0.242451
1.50500	43.973	-0.242474
1.50667	43.989	-0.242499
1.50833	44.006	-0.242526
1.51000	44.023	-0.242558
1.51167	44.039	-0.242597
1.51333	44.056	-0.242630
1.51500	44.073	-0.242657
1.51667	44.091	-0.242678
1.51833	44.107	-0.242695
1.52000	44.124	-0.242709
1.52167	44.141	-0.242723
1.52333	44.157	-0.242731
1.52500	44.174	-0.242741
1.52667	44.190	-0.242750
1.52833	44.207	-0.242763
1.53000	44.223	-0.242782
1.53167	44.239	-0.242805
1.53333	44.256	-0.242825
1.53500	44.273	-0.242843
1.53667	44.290	-0.242861
1.53833	44.307	-0.242879
1.54000	44.323	-0.242896
1.54167	44.340	-0.242917
1.54333	44.357	-0.242940
1.54500	44.374	-0.242960
1.54667	44.390	-0.242982
1.54833	44.407	-0.243007
1.55000	44.424	-0.243034
1.55167	44.441	-0.243060
1.55333	44.457	-0.243082
1.55500	44.474	-0.243103
1.55667	44.490	-0.243124
1.55833	44.507	-0.243142
1.56000	44.524	-0.243161
1.56167	44.540	-0.243183
1.56333	44.556	-0.243212
1.56500	44.574	-0.243236
1.56667	44.590	-0.243262
1.56833	44.606	-0.243280
1.57000	44.623	-0.243295
1.57167	44.640	-0.243308
1.57333	44.656	-0.243320
1.57500	44.674	-0.243330
1.57667	44.689	-0.243340
1.57833	44.707	-0.243351
1.58000	44.723	-0.243363
1.58167	44.739	-0.243382
1.58333	44.757	-0.243401
1.58500	44.774	-0.243425
1.58667	44.790	-0.243446
1.58833	44.807	-0.243463
1.59000	44.822	-0.243479
1.59167	44.839	-0.243493
1.59333	44.855	-0.243506
1.59500	44.873	-0.243522
1.59667	44.890	-0.243538
1.59833	44.907	-0.243552
1.60000	44.923	-0.243563
1.60167	44.940	-0.243575
1.60333	44.957	-0.243586
1.60500	44.974	-0.243597
1.60667	44.990	-0.243606
1.60833	45.007	-0.243620
1.61000	45.024	-0.243633
1.61167	45.041	-0.243647
1.61333	45.057	-0.243660
1.61500	45.074	-0.243675
1.61667	45.090	-0.243691
1.61833	45.107	-0.243705
1.62000	45.124	-0.243719
1.62167	45.140	-0.243737
1.62333	45.157	-0.243754
1.62500	45.173	-0.243773
1.62667	45.190	-0.243796
1.62833	45.206	-0.243822
1.63000	45.224	-0.243875
1.63167	45.241	-0.243901
1.63333	45.258	-0.243925
1.63500	45.274	-0.243951
1.63667	45.290	-0.243975
1.63833	45.308	-0.243996
1.64000	45.324	-0.244016
1.64167	45.340	-0.244031
1.64333	45.357	-0.244043
1.64500	45.374	-0.244056
1.64667	45.390	-0.244067
1.64833	45.407	-0.244077
1.65000	45.423	-0.244086
1.65167	45.440	-0.244089
1.65333	45.457	-0.244093
1.65500	45.474	-0.244103
1.65667	45.490	-0.244115
1.65833	45.508	-0.244129
1.66000	45.524	-0.244148
1.66167	45.541	-0.244166
1.66333	45.557	-0.244185
1.66500	45.574	-0.244206
1.66667	45.591	-0.244224
1.66833	45.608	-0.244243
1.67000	45.625	-0.244255
1.67167	45.641	-0.244264
1.67333	45.658	-0.244272
1.67500	45.674	-0.244278
1.67667	45.691	-0.244281
1.67833	45.707	-0.244282
1.68000	45.723	-0.244286
1.68167	45.740	-0.244287
1.68333	45.758	-0.244286
1.68500	45.774	-0.244291
1.68667	45.792	-0.244304
1.68833	45.808	-0.244320
1.69000	45.824	-0.244335
1.69167	45.842	-0.244348
1.69333	45.858	-0.244360
1.69500	45.875	-0.244369
1.69667	45.892	-0.244378
1.69833	45.908	-0.244387
1.70000	45.924	-0.244393
1.70167	45.942	-0.244393
1.70333	45.959	-0.244394
1.70500	45.974	-0.244399
1.70667	45.991	-0.244401
1.70833	46.008	-0.244402
1.71000	46.024	-0.244401
1.71167	46.041	-0.244400
1.71333	46.058	-0.244400
1.71500	46.075	-0.244397
1.71667	46.093	-0.244399
1.71833	46.109	-0.244406
1.72000	46.126	-0.244415
1.72167	46.142	-0.244420
1.72333	46.159	-0.244425
1.72500	46.175	-0.244428
1.72667	46.193	-0.244433
1.72833	46.210	-0.244436
1.73000	46.225	-0.244439
1.73167	46.242	-0.244437
1.73333	46.258	-0.244436
1.73500	46.275	-0.244438
1.73667	46.292	-0.244447
1.73833	46.310	-0.244460
1.74000	46.325	-0.244475
1.74167	46.343	-0.244489
1.74333	46.359	-0.244505
1.74500	46.376	-0.244537
1.74667	46.393	-0.244556
1.74833	46.408	-0.244568
1.75000	46.426	-0.244573
1.75167	46.442	-0.244570
1.75333	46.459	-0.244563
1.75500	46.475	-0.244540
1.75667	46.492	-0.244526
1.75833	46.509	-0.244519
1.76000	46.524	-0.244509
1.76167	46.541	-0.244503
1.76333	46.558	-0.244496
1.76500	46.574	-0.244492
1.76667	46.591	-0.244489
1.76833	46.608	-0.244487
1.77000	46.623	-0.244482
1.77167	46.642	-0.244479
1.77333	46.658	-0.244475
1.77500	46.676	-0.244475
1.77667	46.693	-0.244475
1.77833	46.709	-0.244471
1.78000	46.725	-0.244467
1.78167	46.742	-0.244457
1.78333	46.758	-0.244451
1.78500	46.774	-0.244447
1.78667	46.791	-0.244446
1.78833	46.808	-0.244447
1.79000	46.824	-0.244446
1.79167	46.840	-0.244446
1.79333	46.858	-0.244446
1.79500	46.873	-0.244445
1.79667	46.891	-0.244443
1.79833	46.907	-0.244438
1.80000	46.923	-0.244429
1.80167	46.940	-0.244417
1.80333	46.957	-0.244392
1.80500	46.974	-0.244373
1.80667	46.990	-0.244359
1.80833	47.007	-0.244348
1.81000	47.024	-0.244340
1.81167	47.042	-0.244338
1.81333	47.058	-0.244338
1.81500	47.076	-0.244341
1.81667	47.092	-0.244355
1.81833	47.109	-0.244365
1.82000	47.125	-0.244372
1.82167	47.142	-0.244378
1.82333	47.158	-0.244383
1.82500	47.176	-0.244385
1.82667	47.191	-0.244385
1.82833	47.208	-0.244380
1.83000	47.224	-0.244373
1.83167	47.241	-0.244363
1.83333	47.258	-0.244320
1.83500	47.275	-0.244260
1.83667	47.291	-0.244195
1.83833	47.308	-0.244152
1.84000	47.325	-0.244126
1.84167	47.341	-0.244120
1.84333	47.358	-0.244122
1.84500	47.374	-0.244138
1.84667	47.392	-0.244172
1.84833	47.408	-0.244213
1.85000	47.425	-0.244239
1.85167	47.443	-0.244244
1.85333	47.459	-0.244244
1.85500	47.475	-0.244240
1.85667	47.493	-0.244233
1.85833	47.509	-0.244224
1.86000	47.526	-0.244218
1.86167	47.543	-0.244212
1.86333	47.559	-0.244208
1.86500	47.576	-0.244203
1.86667	47.593	-0.244202
1.86833	47.608	-0.244195
1.87000	47.625	-0.244186
1.87167	47.642	-0.244173
1.87333	47.659	-0.244160
1.87500	47.675	-0.244147
1.87667	47.691	-0.244137
1.87833	47.710	-0.244125
1.88000	47.725	-0.244115
1.88167	47.742	-0.244105
1.88333	47.758	-0.244091
1.88500	47.776	-0.244081
1.88667	47.792	-0.244069
1.88833	47.808	-0.244054
1.89000	47.825	-0.244023
1.89167	47.842	-0.243997
1.89333	47.858	-0.243980
1.89500	47.875	-0.243963
1.89667	47.891	-0.243948
1.89833	47.909	-0.243938
1.90000	47.925	-0.243928
1.90167	47.942	-0.243919
1.90333	47.958	-0.243912
1.90500	47.975	-0.243905
1.90667	47.991	-0.243898
1.90833	48.008	-0.243884
1.91000	48.024	-0.243865
1.91167	48.042	-0.243851
1.91333	48.059	-0.243836
1.91500	48.075	-0.243819
1.91667	48.091	-0.243800
1.91833	48.107	-0.243780
1.92000	48.125	-0.243764
1.92167	48.141	-0.243749
1.92333	48.157	-0.243733
1.92500	48.174	-0.243722
1.92667	48.190	-0.243713
1.92833	48.207	-0.243705
1.93000	48.225	-0.243696
1.93167	48.240	-0.243690
1.93333	48.258	-0.243684
1.93500	48.274	-0.243668
1.93667	48.292	-0.243647
1.93833	48.307	-0.243629
1.94000	48.324	-0.243609
1.94167	48.341	-0.243590
1.94333	48.358	-0.243575
1.94500	48.375	-0.243564
1.94667	48.390	-0.243556
1.94833	48.408	-0.243549
1.95000	48.424	-0.243546
1.95167	48.441	-0.243548
1.95333	48.458	-0.243544
1.95500	48.476	-0.243538
1.95667	48.492	-0.243529
1.95833	48.508	-0.243516
1.96000	48.524	-0.243506
1.96167	48.541	-0.243494
1.96333	48.558	-0.243481
1.96500	48.575	-0.243464
1.96667	48.591	-0.243444
1.96833	48.607	-0.243423
1.97000	48.624	-0.243408
1.97167	48.641	-0.243393
1.97333	48.658	-0.243378
1.97500	48.675	-0.243370
1.97667	48.691	-0.243364
1.97833	48.708	-0.243359
1.98000	48.725	-0.243353
1.98167	48.742	-0.243348
1.98333	48.759	-0.243344
1.98500	48.774	-0.243342
1.98667	48.791	-0.243337
1.98833	48.808	-0.243331
1.99000	48.825	-0.243318
1.99167	48.841	-0.243303
1.99333	48.857	-0.243285
1.99500	48.875	-0.243272
1.99667	48.891	-0.243258
1.99833	48.907	-0.243242
2.00000	48.924	-0.243224
2.00167	48.941	-0.243206
2.00333	48.958	-0.243188
2.00500	48.975	-0.243172
2.00667	48.991	-0.243155
2.00833	49.008	-0.243136
2.01000	49.024	-0.243114
2.01167	49.041	-0.243069
2.01333	49.058	-0.243045
2.01500	49.075	-0.243026
2.01667	49.091	-0.243012
2.01833	49.108	-0.243001
2.02000	49.125	-0.242991
2.02167	49.141	-0.242984
2.02333	49.157	-0.242982
2.02500	49.175	-0.242978
2.02667	49.191	-0.242964
2.02833	49.207	-0.242945
2.03000	49.224	-0.242923
2.03167	49.241	-0.242881
2.03333	49.257	-0.242849
2.03500	49.274	-0.242828
2.03667	49.291	-0.242809
2.03833	49.308	-0.242794
2.04000	49.324	-0.242782
2.04167	49.341	-0.242773
2.04333	49.358	-0.242767
2.04500	49.375	-0.242759
2.04667	49.391	-0.242750
2.04833	49.408	-0.242747
2.05000	49.424	-0.242744
2.05167	49.441	-0.242741
2.05333	49.457	-0.242739
2.05500	49.473	-0.242733
2.05667	49.491	-0.242725
2.05833	49.507	-0.242713
2.06000	49.524	-0.242696
2.06167	49.541	-0.242680
2.06333	49.558	-0.242666
2.06500	49.574	-0.242651
2.06667	49.590	-0.242635
2.06833	49.607	-0.242619
2.07000	49.625	-0.242604
2.07167	49.642	-0.242583
2.07333	49.658	-0.242554
2.07500	49.675	-0.242496
2.07667	49.691	-0.242474
2.07833	49.707	-0.242452
2.08000	49.725	-0.242432
2.08167	49.741	-0.242416
2.08333	49.757	-0.242402
2.08500	49.774	-0.242386
2.08667	49.792	-0.242370
2.08833	49.808	-0.242357
2.09000	49.825	-0.242344
2.09167	49.842	-0.242325
2.09333	49.859	-0.242305
2.09500	49.874	-0.242289
2.09667	49.891	-0.242280
2.09833	49.909	-0.242274
2.10000	49.925	-0.242271
2.10167	49.942	-0.242269
2.10333	49.958	-0.242266
2.10500	49.975	-0.242256
2.10667	49.992	-0.242247
2.10833	50.008	-0.242238
2.11000	50.025	-0.242222
2.11167	50.042	-0.242199
2.11333	50.058	-0.242177
2.11500	50.075	-0.242162
2.11667	50.091	-0.242153
2.11833	50.109	-0.242144
2.12000	50.125	-0.242140
2.12167	50.142	-0.242138
2.12333	50.158	-0.242136
2.12500	50.175	-0.242134
2.12667	50.191	-0.242129
2.12833	50.208	-0.242120
2.13000	50.226	-0.242105
2.13167	50.241	-0.242089
2.13333	50.258	-0.242069
2.13500	50.275	-0.242051
2.13667	50.292	-0.242030
2.13833	50.309	-0.242009
2.14000	50.325	-0.241991
2.14167	50.341	-0.241976
2.14333	50.359	-0.241962
2.14500	50.375	-0.241950
2.14667	50.392	-0.241941
2.14833	50.408	-0.241933
2.15000	50.425	-0.241925
2.15167	50.442	-0.241912
2.15333	50.458	-0.241894
2.15500	50.475	-0.241871
2.15667	50.491	-0.241824
2.15833	50.509	-0.241777
2.16000	50.525	-0.241727
2.16167	50.542	-0.241685
2.16333	50.558	-0.241664
2.16500	50.575	-0.241645
2.16667	50.591	-0.241629
2.16833	50.607	-0.241614
2.17000	50.625	-0.241598
2.17167	50.640	-0.241580
2.17333	50.657	-0.241561
2.17500	50.674	-0.241541
2.17667	50.691	-0.241523
2.17833	50.707	-0.241507
2.18000	50.724	-0.241491
2.18167	50.741	-0.241474
2.18333	50.758	-0.241459
2.18500	50.774	-0.241446
2.18667	50.791	-0.241433
2.18833	50.807	-0.241421
2.19000	50.824	-0.241412
2.19167	50.841	-0.241397
2.19333	50.858	-0.241381
2.19500	50.874	-0.241365
2.19667	50.890	-0.241346
2.19833	50.908	-0.241327
2.20000	50.924	-0.241304
2.20167	50.941	-0.241271
2.20333	50.957	-0.241244
2.20500	50.973	-0.241222
2.20667	50.991	-0.241207
2.20833	51.007	-0.241200
2.21000	51.024	-0.241193
2.21167	51.041	-0.241185
2.21333	51.058	-0.241172
2.21500	51.074	-0.241156
2.21667	51.090	-0.241141
2.21833	51.107	-0.241123
2.22000	51.124	-0.241101
2.22167	51.141	-0.241080
2.22333	51.157	-0.241059
2.22500	51.175	-0.241042
2.22667	51.190	-0.241029
2.22833	51.208	-0.241017
2.23000	51.224	-0.241003
2.23167	51.241	-0.240983
2.23333	51.257	-0.240958
2.23500	51.275	-0.240933
2.23667	51.291	-0.240911
2.23833	51.308	-0.240884
2.24000	51.324	-0.240857
2.24167	51.341	-0.240832
2.24333	51.358	-0.240807
2.24500	51.374	-0.240785
2.24667	51.390	-0.240766
2.24833	51.407	-0.240745
2.25000	51.424	-0.240724
2.25167	51.441	-0.240704
2.25333	51.457	-0.240687
2.25500	51.475	-0.240670
2.25667	51.490	-0.240652
2.25833	51.508	-0.240637
2.26000	51.524	-0.240620
2.26167	51.540	-0.240599
2.26333	51.557	-0.240577
2.26500	51.574	-0.240558
2.26667	51.590	-0.240534
2.26833	51.608	-0.240509
2.27000	51.624	-0.240483
2.27167	51.641	-0.240458
2.27333	51.658	-0.240438
2.27500	51.675	-0.240414
2.27667	51.691	-0.240396
2.27833	51.708	-0.240375
2.28000	51.724	-0.240351
2.28167	51.742	-0.240326
2.28333	51.758	-0.240303
2.28500	51.775	-0.240276
2.28667	51.791	-0.240248
2.28833	51.807	-0.240212
2.29000	51.825	-0.240121
2.29167	51.841	-0.240092
2.29333	51.858	-0.240065
2.29500	51.874	-0.240042
2.29667	51.891	-0.240018
2.29833	51.907	-0.239996
2.30000	51.924	-0.239977
2.30167	51.940	-0.239958
2.30333	51.957	-0.239939
2.30500	51.973	-0.239919
2.30667	51.990	-0.239898
2.30833	52.008	-0.239872
2.31000	52.023	-0.239847
2.31167	52.040	-0.239821
2.31333	52.056	-0.239793
2.31500	52.073	-0.239754
2.31667	52.090	-0.239626
2.31833	52.107	-0.239556
2.32000	52.124	-0.239518
2.32167	52.140	-0.239490
2.32333	52.157	-0.239466
2.32500	52.174	-0.239445
2.32667	52.191	-0.239426
2.32833	52.208	-0.239406
2.33000	52.223	-0.239387
2.33167	52.241	-0.239371
2.33333	52.258	-0.239360
2.33500	52.274	-0.239345
2.33667	52.290	-0.239327
2.33833	52.307	-0.239305
2.34000	52.323	-0.239284
2.34167	52.340	-0.239262
2.34333	52.357	-0.239235
2.34500	52.374	-0.239209
2.34667	52.391	-0.239181
2.34833	52.407	-0.239153
2.35000	52.423	-0.239128
2.35167	52.440	-0.239102
2.35333	52.457	-0.239079
2.35500	52.474	-0.239056
2.35667	52.490	-0.239033
2.35833	52.507	-0.239011
2.36000	52.523	-0.238985
2.36167	52.540	-0.238949
2.36333	52.557	-0.238919
2.36500	52.573	-0.238891
2.36667	52.591	-0.238862
2.36833	52.607	-0.238834
2.37000	52.624	-0.238806
2.37167	52.639	-0.238774
2.37333	52.656	-0.238744
2.37500	52.673	-0.238712
2.37667	52.690	-0.238657
2.37833	52.706	-0.238595
2.38000	52.724	-0.238516
2.38167	52.741	-0.238445
2.38333	52.757	-0.238394
2.38500	52.774	-0.238360
2.38667	52.791	-0.238332
2.38833	52.806	-0.238313
2.39000	52.823	-0.238293
2.39167	52.839	-0.238275
2.39333	52.856	-0.238261
2.39500	52.873	-0.238241
2.39667	52.890	-0.238213
2.39833	52.907	-0.238180
2.40000	52.923	-0.238072
2.40167	52.940	-0.237915
2.40333	52.956	-0.237741
2.40500	52.973	-0.237628
2.40667	52.989	-0.237594
2.40833	53.006	-0.237561
2.41000	53.023	-0.237531
2.41167	53.040	-0.237510
2.41333	53.057	-0.237497
2.41500	53.073	-0.237485
2.41667	53.090	-0.237475
2.41833	53.107	-0.237463
2.42000	53.123	-0.237447
2.42167	53.140	-0.237426
2.42333	53.157	-0.237399
2.42500	53.173	-0.237371
2.42667	53.190	-0.237340
2.42833	53.207	-0.237303
2.43000	53.224	-0.237236
2.43167	53.240	-0.237153
2.43333	53.256	-0.237121
2.43500	53.273	-0.237077
2.43667	53.290	-0.237038
2.43833	53.306	-0.237005
2.44000	53.323	-0.236973
2.44167	53.341	-0.236941
2.44333	53.357	-0.236912
2.44500	53.373	-0.236882
2.44667	53.391	-0.236852
2.44833	53.407	-0.236817
2.45000	53.423	-0.236786
2.45167	53.440	-0.236760
2.45333	53.457	-0.236730
2.45500	53.474	-0.236702
2.45667	53.490	-0.236671
2.45833	53.507	-0.236639
2.46000	53.524	-0.236606
2.46167	53.540	-0.236574
2.46333	53.558	-0.236543
2.46500	53.574	-0.236513
2.46667	53.591	-0.236482
2.46833	53.606	-0.236453
2.47000	53.623	-0.236426
2.47167	53.640	-0.236398
2.47333	53.657	-0.236371
2.47500	53.673	-0.236344
2.47667	53.690	-0.236316
2.47833	53.708	-0.236286
2.48000	53.725	-0.236252
2.48167	53.741	-0.236216
2.48333	53.757	-0.236182
2.48500	53.775	-0.236145
2.48667	53.790	-0.236105
2.48833	53.808	-0.236025
2.49000	53.824	-0.235807
2.49167	53.841	-0.235573
2.49333	53.857	-0.235352
2.49500	53.873	-0.235189
2.49667	53.890	-0.235078
2.49833	53.907	-0.234987
2.50000	53.924	-0.234929
2.50167	53.940	-0.234883
2.50333	53.956	-0.234856
2.50500	53.973	-0.234832
2.50667	53.990	-0.234810
2.50833	54.006	-0.234784
2.51000	54.024	-0.234759
2.51167	54.041	-0.234732
2.51333	54.057	-0.234705
2.51500	54.073	-0.234676
2.51667	54.090	-0.234643
2.51833	54.107	-0.234608
2.52000	54.124	-0.234545
2.52167	54.140	-0.234461
2.52333	54.156	-0.234395
2.52500	54.174	-0.234335
2.52667	54.190	-0.234271
2.52833	54.207	-0.234233
2.53000	54.224	-0.234195
2.53167	54.240	-0.234138
2.53333	54.257	-0.234091
2.53500	54.274	-0.234031
2.53667	54.290	-0.233992
2.53833	54.307	-0.233932
2.54000	54.323	-0.233864
2.54167	54.339	-0.233763
2.54333	54.357	-0.233689
2.54500	54.373	-0.233627
2.54667	54.389	-0.233588
2.54833	54.406	-0.233550
2.55000	54.423	-0.233514
2.55167	54.441	-0.233480
2.55333	54.457	-0.233443
2.55500	54.474	-0.233406
2.55667	54.490	-0.233371
2.55833	54.507	-0.233333
2.56000	54.524	-0.233291
2.56167	54.541	-0.233207
2.56333	54.557	-0.233074
2.56500	54.574	-0.232858
2.56667	54.590	-0.232668
2.56833	54.608	-0.232567
2.57000	54.624	-0.232504
2.57167	54.640	-0.232447
2.57333	54.657	-0.232387
2.57500	54.674	-0.232358
2.57667	54.689	-0.232326
2.57833	54.707	-0.232290
2.58000	54.724	-0.232250
2.58167	54.740	-0.232211
2.58333	54.757	-0.232167
2.58500	54.774	-0.232122
2.58667	54.790	-0.232075
2.58833	54.807	-0.232016
2.59000	54.824	-0.231966
2.59167	54.841	-0.231926
2.59333	54.858	-0.231887
2.59500	54.874	-0.231851
2.59667	54.891	-0.231815
2.59833	54.907	-0.231777
2.60000	54.924	-0.231740
2.60167	54.941	-0.231708
2.60333	54.957	-0.231678
2.60500	54.973	-0.231639
2.60667	54.990	-0.231597
2.60833	55.008	-0.231515
2.61000	55.025	-0.231455
2.61167	55.041	-0.231411
2.61333	55.058	-0.231368
2.61500	55.074	-0.231284
2.61667	55.091	-0.231212
2.61833	55.107	-0.231168
2.62000	55.124	-0.231126
2.62167	55.141	-0.231089
2.62333	55.158	-0.231051
2.62500	55.174	-0.231013
2.62667	55.190	-0.230971
2.62833	55.207	-0.230928
2.63000	55.224	-0.230889
2.63167	55.241	-0.230847
2.63333	55.258	-0.230804
2.63500	55.275	-0.230737
2.63667	55.291	-0.230668
2.63833	55.307	-0.230617
2.64000	55.324	-0.230577
2.64167	55.342	-0.230537
2.64333	55.358	-0.230497
2.64500	55.374	-0.230455
2.64667	55.390	-0.230411
2.64833	55.407	-0.230365
2.65000	55.424	-0.230318
2.65167	55.440	-0.230222
2.65333	55.457	-0.230053
2.65500	55.474	-0.229929
2.65667	55.490	-0.229861
2.65833	55.507	-0.229787
2.66000	55.524	-0.229745
2.66167	55.540	-0.229692
2.66333	55.557	-0.229642
2.66500	55.574	-0.229604
2.66667	55.590	-0.229569
2.66833	55.607	-0.229536
2.67000	55.624	-0.229501
2.67167	55.641	-0.229464
2.67333	55.658	-0.229428
2.67500	55.674	-0.229391
2.67667	55.691	-0.229352
2.67833	55.708	-0.229312
2.68000	55.724	-0.229275
2.68167	55.741	-0.229236
2.68333	55.758	-0.229195
2.68500	55.774	-0.229150
2.68667	55.791	-0.229107
2.68833	55.808	-0.229070
2.69000	55.824	-0.229034
2.69167	55.841	-0.228999
2.69333	55.857	-0.228964
2.69500	55.874	-0.228922
2.69667	55.891	-0.228880
2.69833	55.907	-0.228832
2.70000	55.924	-0.228787
2.70167	55.942	-0.228741
2.70333	55.957	-0.228616
2.70500	55.973	-0.228534
2.70667	55.992	-0.228483
2.70833	56.007	-0.228441
2.71000	56.024	-0.228400
2.71167	56.040	-0.228360
2.71333	56.056	-0.228319
2.71500	56.074	-0.228280
2.71667	56.091	-0.228237
2.71833	56.107	-0.228190
2.72000	56.124	-0.228141
2.72167	56.142	-0.228092
2.72333	56.157	-0.228045
2.72500	56.174	-0.228001
2.72667	56.191	-0.227956
2.72833	56.207	-0.227911
2.73000	56.224	-0.227868
2.73167	56.242	-0.227824
2.73333	56.257	-0.227778
2.73500	56.274	-0.227734
2.73667	56.291	-0.227690
2.73833	56.308	-0.227646
2.74000	56.325	-0.227602
2.74167	56.342	-0.227560
2.74333	56.358	-0.227521
2.74500	56.375	-0.227477
2.74667	56.392	-0.227433
2.74833	56.409	-0.227386
2.75000	56.424	-0.227339
2.75167	56.442	-0.227294
2.75333	56.459	-0.227246
2.75500	56.475	-0.227202
2.75667	56.491	-0.227162
2.75833	56.508	-0.227122
2.76000	56.525	-0.227083
2.76167	56.540	-0.227051
2.76333	56.557	-0.227020
2.76500	56.575	-0.226985
2.76667	56.592	-0.226947
2.76833	56.607	-0.226903
2.77000	56.625	-0.226857
2.77167	56.641	-0.226785
2.77333	56.658	-0.226717
2.77500	56.674	-0.226671
2.77667	56.691	-0.226627
2.77833	56.708	-0.226586
2.78000	56.725	-0.226550
2.78167	56.741	-0.226518
2.78333	56.758	-0.226490
2.78500	56.775	-0.226460
2.78667	56.791	-0.226426
2.78833	56.808	-0.226389
2.79000	56.825	-0.226347
2.79167	56.841	-0.226302
2.79333	56.857	-0.226259
2.79500	56.875	-0.226219
2.79667	56.890	-0.226175
2.79833	56.908	-0.226122
2.80000	56.925	-0.226076
2.80167	56.941	-0.226031
2.80333	56.959	-0.225986
2.80500	56.975	-0.225941
2.80667	56.992	-0.225897
2.80833	57.008	-0.225852
2.81000	57.025	-0.225808
2.81167	57.042	-0.225768
2.81333	57.058	-0.225731
2.81500	57.075	-0.225693
2.81667	57.092	-0.225655
2.81833	57.108	-0.225620
2.82000	57.125	-0.225582
2.82167	57.142	-0.225549
2.82333	57.158	-0.225512
2.82500	57.176	-0.225470
2.82667	57.193	-0.225427
2.82833	57.208	-0.225384
2.83000	57.225	-0.225341
2.83167	57.242	-0.225299
2.83333	57.259	-0.225255
2.83500	57.276	-0.225211
2.83667	57.292	-0.225175
2.83833	57.308	-0.225138
2.84000	57.325	-0.225104
2.84167	57.342	-0.225073
2.84333	57.358	-0.225038
2.84500	57.376	-0.225000
2.84667	57.391	-0.224965
2.84833	57.408	-0.224929
2.85000	57.425	-0.224892
2.85167	57.442	-0.224850
2.85333	57.459	-0.224736
2.85500	57.476	-0.224681
2.85667	57.492	-0.224631
2.85833	57.509	-0.224582
2.86000	57.526	-0.224536
2.86167	57.543	-0.224457
2.86333	57.559	-0.224362
2.86500	57.576	-0.224317
2.86667	57.593	-0.224279
2.86833	57.609	-0.224246
2.87000	57.625	-0.224214
2.87167	57.642	-0.224182
2.87333	57.658	-0.224151
2.87500	57.674	-0.224121
2.87667	57.691	-0.224088
2.87833	57.709	-0.224053
2.88000	57.725	-0.224011
2.88167	57.742	-0.223945
2.88333	57.759	-0.223845
2.88500	57.776	-0.223753
2.88667	57.792	-0.223700
2.88833	57.809	-0.223662
2.89000	57.825	-0.223629
2.89167	57.842	-0.223600
2.89333	57.859	-0.223566
2.89500	57.877	-0.223533
2.89667	57.894	-0.223500
2.89833	57.909	-0.223469
2.90000	57.926	-0.223433
2.90167	57.942	-0.223396
2.90333	57.960	-0.223359
2.90500	57.976	-0.223319
2.90667	57.993	-0.223284
2.90833	58.010	-0.223243
2.91000	58.026	-0.223201
2.91167	58.044	-0.223050
2.91333	58.060	-0.222798
2.91500	58.076	-0.222599
2.91667	58.093	-0.222401
2.91833	58.110	-0.222217
2.92000	58.126	-0.222126
2.92167	58.142	-0.222046
2.92333	58.160	-0.222004
2.92500	58.176	-0.221966
2.92667	58.194	-0.221932
2.92833	58.210	-0.221900
2.93000	58.227	-0.221865
2.93167	58.244	-0.221829
2.93333	58.260	-0.221799
2.93500	58.276	-0.221770
2.93667	58.293	-0.221744
2.93833	58.310	-0.221723
2.94000	58.326	-0.221699
2.94167	58.343	-0.221676
2.94333	58.359	-0.221648
2.94500	58.375	-0.221618
2.94667	58.393	-0.221587
2.94833	58.409	-0.221554
2.95000	58.425	-0.221520
2.95167	58.443	-0.221491
2.95333	58.460	-0.221462
2.95500	58.476	-0.221436
2.95667	58.493	-0.221414
2.95833	58.510	-0.221390
2.96000	58.527	-0.221365
2.96167	58.543	-0.221338
2.96333	58.560	-0.221309
2.96500	58.576	-0.221278
2.96667	58.593	-0.221246
2.96833	58.609	-0.221213
2.97000	58.626	-0.221186
2.97167	58.643	-0.221163
2.97333	58.660	-0.221147
2.97500	58.676	-0.221131
2.97667	58.693	-0.221117
2.97833	58.710	-0.221099
2.98000	58.726	-0.221080
2.98167	58.744	-0.221058
2.98333	58.760	-0.221036
2.98500	58.777	-0.221012
2.98667	58.792	-0.220989
2.98833	58.810	-0.220964
2.99000	58.827	-0.220942
2.99167	58.843	-0.220921
2.99333	58.861	-0.220901
2.99500	58.876	-0.220885
2.99667	58.893	-0.220870
2.99833	58.910	-0.220855
3.00000	58.926	-0.220839
3.00167	58.943	-0.220823
3.00333	58.960	-0.220809
3.00500	58.977	-0.220793
3.00667	58.993	-0.220778
3.00833	59.011	-0.220762
3.01000	59.028	-0.220738
3.01167	59.043	-0.220714
3.01333	59.061	-0.220690
3.01500	59.077	-0.220667
3.01667	59.093	-0.220637
3.01833	59.110	-0.220607
3.02000	59.127	-0.220563
3.02167	59.144	-0.220522
3.02333	59.160	-0.220449
3.02500	59.177	-0.220407
3.02667	59.193	-0.220377
3.02833	59.210	-0.220350
3.03000	59.227	-0.220333
3.03167	59.243	-0.220324
3.03333	59.260	-0.220316
3.03500	59.276	-0.220308
3.03667	59.293	-0.220304
3.03833	59.310	-0.220297
3.04000	59.327	-0.220283
3.04167	59.344	-0.220268
3.04333	59.361	-0.220244
3.04500	59.377	-0.220220
3.04667	59.394	-0.220197
3.04833	59.410	-0.220174
3.05000	59.428	-0.220150
3.05167	59.444	-0.220132
3.05333	59.461	-0.220115
3.05500	59.477	-0.220101
3.05667	59.493	-0.220082
3.05833	59.511	-0.220067
3.06000	59.527	-0.220056
3.06167	59.544	-0.220044
3.06333	59.560	-0.220027
3.06500	59.577	-0.220012
3.06667	59.593	-0.219992
3.06833	59.611	-0.219972
3.07000	59.627	-0.219959
3.07167	59.643	-0.219947
3.07333	59.661	-0.219940
3.07500	59.677	-0.219928
3.07667	59.694	-0.219915
3.07833	59.711	-0.219908
3.08000	59.728	-0.219906
3.08167	59.744	-0.219902
3.08333	59.760	-0.219894
3.08500	59.776	-0.219877
3.08667	59.792	-0.219859
3.08833	59.809	-0.219841
3.09000	59.826	-0.219823
3.09167	59.844	-0.219806
3.09333	59.860	-0.219785
3.09500	59.877	-0.219763
3.09667	59.893	-0.219745
3.09833	59.910	-0.219733
3.10000	59.927	-0.219723
3.10167	59.944	-0.219716
3.10333	59.961	-0.219711
3.10500	59.977	-0.219712
3.10667	59.994	-0.219714
3.10833	60.011	-0.219723
3.11000	60.027	-0.219724
3.11167	60.044	-0.219723
3.11333	60.060	-0.219725
3.11500	60.076	-0.219721
3.11667	60.094	-0.219716
3.11833	60.111	-0.219710
3.12000	60.127	-0.219702
3.12167	60.144	-0.219695
3.12333	60.161	-0.219687
3.12500	60.177	-0.219679
3.12667	60.194	-0.219675
3.12833	60.210	-0.219672
3.13000	60.228	-0.219669
3.13167	60.243	-0.219670
3.13333	60.261	-0.219673
3.13500	60.277	-0.219682
3.13667	60.294	-0.219699
3.13833	60.310	-0.219709
3.14000	60.327	-0.219714
3.14167	60.343	-0.219716
3.14333	60.361	-0.219719
3.14500	60.377	-0.219719
3.14667	60.394	-0.219721
3.14833	60.410	-0.219724
3.15000	60.427	-0.219727
3.15167	60.444	-0.219732
3.15333	60.461	-0.219748
3.15500	60.477	-0.219770
3.15667	60.494	-0.219778
3.15833	60.511	-0.219783
3.16000	60.529	-0.219790
3.16167	60.545	-0.219797
3.16333	60.561	-0.219799
3.16500	60.578	-0.219800
3.16667	60.595	-0.219800
3.16833	60.611	-0.219805
3.17000	60.627	-0.219814
3.17167	60.643	-0.219839
3.17333	60.660	-0.219864
3.17500	60.676	-0.219878
3.17667	60.692	-0.219889
3.17833	60.709	-0.219903
3.18000	60.727	-0.219921
3.18167	60.743	-0.219935
3.18333	60.760	-0.219948
3.18500	60.777	-0.219957
3.18667	60.793	-0.219965
3.18833	60.811	-0.219973
3.19000	60.826	-0.219980
3.19167	60.844	-0.219987
3.19333	60.859	-0.219996
3.19500	60.876	-0.220005
3.19667	60.892	-0.220017
3.19833	60.909	-0.220031
3.20000	60.927	-0.220046
3.20167	60.943	-0.220073
3.20333	60.961	-0.220121
3.20500	60.977	-0.220186
3.20667	60.994	-0.220241
3.20833	61.011	-0.220279
3.21000	61.027	-0.220314
3.21167	61.044	-0.220331
3.21333	61.061	-0.220347
3.21500	61.076	-0.220362
3.21667	61.094	-0.220373
3.21833	61.109	-0.220385
3.22000	61.126	-0.220397
3.22167	61.143	-0.220410
3.22333	61.159	-0.220423
3.22500	61.177	-0.220437
3.22667	61.194	-0.220452
3.22833	61.210	-0.220469
3.23000	61.227	-0.220487
3.23167	61.243	-0.220504
3.23333	61.260	-0.220521
3.23500	61.276	-0.220539
3.23667	61.293	-0.220561
3.23833	61.310	-0.220584
3.24000	61.327	-0.220655
3.24167	61.344	-0.220779
3.24333	61.361	-0.220857
3.24500	61.377	-0.220934
3.24667	61.393	-0.220992
3.24833	61.410	-0.221019
3.25000	61.427	-0.221041
3.25167	61.443	-0.221058
3.25333	61.460	-0.221072
3.25500	61.477	-0.221087
3.25667	61.493	-0.221101
3.25833	61.510	-0.221117
3.26000	61.527	-0.221137
3.26167	61.543	-0.221155
3.26333	61.560	-0.221175
3.26500	61.576	-0.221194
3.26667	61.593	-0.221215
3.26833	61.610	-0.221233
3.27000	61.627	-0.221253
3.27167	61.643	-0.221276
3.27333	61.661	-0.221300
3.27500	61.677	-0.221326
3.27667	61.694	-0.221349
3.27833	61.710	-0.221373
3.28000	61.727	-0.221397
3.28167	61.744	-0.221417
3.28333	61.760	-0.221432
3.28500	61.777	-0.221444
3.28667	61.793	-0.221454
3.28833	61.810	-0.221468
3.29000	61.827	-0.221491
3.29167	61.844	-0.221517
3.29333	61.860	-0.221581
3.29500	61.876	-0.221628
3.29667	61.893	-0.221656
3.29833	61.910	-0.221685
3.30000	61.927	-0.221713
3.30167	61.943	-0.221743
3.30333	61.960	-0.221768
3.30500	61.976	-0.221794
3.30667	61.993	-0.221820
3.30833	62.010	-0.221852
3.31000	62.027	-0.221920
3.31167	62.044	-0.222023
3.31333	62.061	-0.222072
3.31500	62.077	-0.222103
3.31667	62.094	-0.222131
3.31833	62.111	-0.222156
3.32000	62.128	-0.222176
3.32167	62.144	-0.222192
3.32333	62.160	-0.222215
3.32500	62.177	-0.222239
3.32667	62.193	-0.222265
3.32833	62.210	-0.222292
3.33000	62.227	-0.222319
3.33167	62.244	-0.222346
3.33333	62.260	-0.222375
3.33500	62.276	-0.222407
3.33667	62.293	-0.222439
3.33833	62.309	-0.222471
3.34000	62.326	-0.222503
3.34167	62.343	-0.222561
3.34333	62.360	-0.222607
3.34500	62.377	-0.222647
3.34667	62.394	-0.222680
3.34833	62.410	-0.222712
3.35000	62.427	-0.222742
3.35167	62.445	-0.222772
3.35333	62.461	-0.222802
3.35500	62.477	-0.222830
3.35667	62.493	-0.222857
3.35833	62.511	-0.222883
3.36000	62.527	-0.222911
3.36167	62.543	-0.222937
3.36333	62.559	-0.222966
3.36500	62.577	-0.222997
3.36667	62.594	-0.223026
3.36833	62.610	-0.223058
3.37000	62.627	-0.223093
3.37167	62.644	-0.223162
3.37333	62.661	-0.223220
3.37500	62.678	-0.223315
3.37667	62.695	-0.223370
3.37833	62.711	-0.223411
3.38000	62.727	-0.223448
3.38167	62.745	-0.223483
3.38333	62.760	-0.223520
3.38500	62.777	-0.223551
3.38667	62.794	-0.223582
3.38833	62.810	-0.223617
3.39000	62.827	-0.223655
3.39167	62.843	-0.223692
3.39333	62.860	-0.223731
3.39500	62.877	-0.223797
3.39667	62.894	-0.223855
3.39833	62.910	-0.223937
3.40000	62.927	-0.223990
3.40167	62.943	-0.224035
3.40333	62.960	-0.224083
3.40500	62.978	-0.224123
3.40667	62.993	-0.224163
3.40833	63.011	-0.224207
3.41000	63.026	-0.224248
3.41167	63.044	-0.224296
3.41333	63.061	-0.224349
3.41500	63.077	-0.224409
3.41667	63.093	-0.224513
3.41833	63.110	-0.224602
3.42000	63.127	-0.224700
3.42167	63.143	-0.224816
3.42333	63.161	-0.224973
3.42500	63.177	-0.225103
3.42667	63.193	-0.225251
3.42833	63.211	-0.225360
3.43000	63.227	-0.225432
3.43167	63.244	-0.225474
3.43333	63.261	-0.225528
3.43500	63.278	-0.225561
3.43667	63.294	-0.225597
3.43833	63.312	-0.225629
3.44000	63.328	-0.225658
3.44167	63.344	-0.225694
3.44333	63.360	-0.225732
3.44500	63.378	-0.225768
3.44667	63.394	-0.225807
3.44833	63.410	-0.225848
3.45000	63.428	-0.225888
3.45167	63.444	-0.225926
3.45333	63.460	-0.225963
3.45500	63.478	-0.226006
3.45667	63.494	-0.226048
3.45833	63.510	-0.226089
3.46000	63.528	-0.226167
3.46167	63.545	-0.226282
3.46333	63.561	-0.226372
3.46500	63.578	-0.226435
3.46667	63.594	-0.226529
3.46833	63.611	-0.226678
3.47000	63.628	-0.226719
3.47167	63.645	-0.226760
3.47333	63.660	-0.226801
3.47500	63.677	-0.226844
3.47667	63.693	-0.226890
3.47833	63.711	-0.226932
3.48000	63.727	-0.226975
3.48167	63.744	-0.227020
3.48333	63.761	-0.227085
3.48500	63.778	-0.227186
3.48667	63.794	-0.227313
3.48833	63.812	-0.227423
3.49000	63.828	-0.227535
3.49167	63.845	-0.227668
3.49333	63.861	-0.227791
3.49500	63.878	-0.227915
3.49667	63.895	-0.228002
3.49833	63.911	-0.228115
3.50000	63.928	-0.228234
3.50167	63.945	-0.228334
3.50333	63.961	-0.228380
3.50500	63.978	-0.228424
3.50667	63.994	-0.228471
3.50833	64.011	-0.228540
3.51000	64.028	-0.228678
3.51167	64.044	-0.228796
3.51333	64.062	-0.228860
3.51500	64.079	-0.228916
3.51667	64.096	-0.228963
3.51833	64.112	-0.229007
3.52000	64.128	-0.229046
3.52167	64.144	-0.229086
3.52333	64.161	-0.229137
3.52500	64.177	-0.229177
3.52667	64.194	-0.229219
3.52833	64.212	-0.229266
3.53000	64.228	-0.229359
3.53167	64.245	-0.229418
3.53333	64.262	-0.229515
3.53500	64.278	-0.229656
3.53667	64.296	-0.229765
3.53833	64.312	-0.229837
3.54000	64.328	-0.230016
3.54167	64.346	-0.230205
3.54333	64.362	-0.230346
3.54500	64.378	-0.230393
3.54667	64.395	-0.230438
3.54833	64.412	-0.230494
3.55000	64.429	-0.230532
3.55167	64.445	-0.230565
3.55333	64.461	-0.230597
3.55500	64.478	-0.230627
3.55667	64.495	-0.230654
3.55833	64.511	-0.230687
3.56000	64.529	-0.230726
3.56167	64.545	-0.230768
3.56333	64.561	-0.230807
3.56500	64.578	-0.230850
3.56667	64.595	-0.230921
3.56833	64.612	-0.231076
3.57000	64.629	-0.231261
3.57167	64.646	-0.231495
3.57333	64.661	-0.231843
3.57500	64.678	-0.232108
3.57667	64.695	-0.232283
3.57833	64.712	-0.232387
3.58000	64.729	-0.232428
3.58167	64.746	-0.232463
3.58333	64.763	-0.232497
3.58500	64.778	-0.232538
3.58667	64.795	-0.232608
3.58833	64.812	-0.232701
3.59000	64.828	-0.232796
3.59167	64.845	-0.232982
3.59333	64.862	-0.233209
3.59500	64.879	-0.233422
3.59667	64.896	-0.233515
3.59833	64.912	-0.233558
3.60000	64.929	-0.233645
3.60167	64.946	-0.233678
3.60333	64.963	-0.233712
3.60500	64.979	-0.233749
3.60667	64.996	-0.233785
3.60833	65.013	-0.233822
3.61000	65.029	-0.233856
3.61167	65.046	-0.233898
3.61333	65.063	-0.234009
3.61500	65.079	-0.234080
3.61667	65.096	-0.234134
3.61833	65.112	-0.234177
3.62000	65.128	-0.234217
3.62167	65.145	-0.234265
3.62333	65.163	-0.234298
3.62500	65.180	-0.234330
3.62667	65.197	-0.234364
3.62833	65.212	-0.234399
3.63000	65.229	-0.234434
3.63167	65.246	-0.234474
3.63333	65.262	-0.234534
3.63500	65.279	-0.234641
3.63667	65.296	-0.234722
3.63833	65.312	-0.234858
3.64000	65.329	-0.234951
3.64167	65.346	-0.235027
3.64333	65.363	-0.235070
3.64500	65.379	-0.235124
3.64667	65.396	-0.235175
3.64833	65.413	-0.235226
3.65000	65.429	-0.235267
3.65167	65.446	-0.235311
3.65333	65.462	-0.235350
3.65500	65.479	-0.235391
3.65667	65.496	-0.235430
3.65833	65.513	-0.235475
3.66000	65.530	-0.235579
3.66167	65.546	-0.235646
3.66333	65.563	-0.235728
3.66500	65.579	-0.235857
3.66667	65.596	-0.235952
3.66833	65.613	-0.236024
3.67000	65.629	-0.236108
3.67167	65.646	-0.236153
3.67333	65.663	-0.236214
3.67500	65.679	-0.236271
3.67667	65.696	-0.236313
3.67833	65.713	-0.236357
3.68000	65.729	-0.236399
3.68167	65.746	-0.236444
3.68333	65.763	-0.236490
3.68500	65.780	-0.236536
3.68667	65.797	-0.236594
3.68833	65.813	-0.236641
3.69000	65.829	-0.236703
3.69167	65.847	-0.236800
3.69333	65.863	-0.236880
3.69500	65.880	-0.236937
3.69667	65.896	-0.236985
3.69833	65.913	-0.237031
3.70000	65.930	-0.237075
3.70167	65.947	-0.237122
3.70333	65.963	-0.237174
3.70500	65.980	-0.237218
3.70667	65.996	-0.237260
3.70833	66.013	-0.237309
3.71000	66.030	-0.237355
3.71167	66.046	-0.237402
3.71333	66.064	-0.237451
3.71500	66.080	-0.237527
3.71667	66.097	-0.237617
3.71833	66.114	-0.237698
3.72000	66.130	-0.237766
3.72167	66.147	-0.237823
3.72333	66.163	-0.237870
3.72500	66.181	-0.237915
3.72667	66.198	-0.237961
3.72833	66.214	-0.238002
3.73000	66.230	-0.238043
3.73167	66.247	-0.238084
3.73333	66.264	-0.238123
3.73500	66.280	-0.238161
3.73667	66.297	-0.238204
3.73833	66.315	-0.238245
3.74000	66.330	-0.238287
3.74167	66.347	-0.238329
3.74333	66.364	-0.238371
3.74500	66.382	-0.238415
3.74667	66.398	-0.238458
3.74833	66.415	-0.238504
3.75000	66.431	-0.238549
3.75167	66.448	-0.238593
3.75333	66.463	-0.238633
3.75500	66.481	-0.238675
3.75667	66.496	-0.238721
3.75833	66.514	-0.238763
3.76000	66.530	-0.238810
3.76167	66.547	-0.238857
3.76333	66.564	-0.238903
3.76500	66.581	-0.238949
3.76667	66.597	-0.238990
3.76833	66.614	-0.239026
3.77000	66.631	-0.239058
3.77167	66.647	-0.239091
3.77333	66.665	-0.239123
3.77500	66.681	-0.239160
3.77667	66.698	-0.239197
3.77833	66.715	-0.239241
3.78000	66.731	-0.239287
3.78167	66.749	-0.239343
3.78333	66.765	-0.239390
3.78500	66.781	-0.239462
3.78667	66.798	-0.239510
3.78833	66.814	-0.239554
3.79000	66.831	-0.239612
3.79167	66.848	-0.239680
3.79333	66.865	-0.239756
3.79500	66.882	-0.239816
3.79667	66.898	-0.239883
3.79833	66.914	-0.239932
3.80000	66.932	-0.239980
3.80167	66.949	-0.240028
3.80333	66.965	-0.240077
3.80500	66.982	-0.240125
3.80667	66.997	-0.240174
3.80833	67.013	-0.240222
3.81000	67.031	-0.240269
3.81167	67.048	-0.240317
3.81333	67.065	-0.240364
3.81500	67.081	-0.240418
3.81667	67.098	-0.240467
3.81833	67.115	-0.240515
3.82000	67.131	-0.240564
3.82167	67.148	-0.240634
3.82333	67.165	-0.240716
3.82500	67.183	-0.240829
3.82667	67.199	-0.240879
3.82833	67.215	-0.240926
3.83000	67.232	-0.240970
3.83167	67.248	-0.241013
3.83333	67.265	-0.241057
3.83500	67.282	-0.241101
3.83667	67.297	-0.241144
3.83833	67.315	-0.241183
3.84000	67.331	-0.241222
3.84167	67.348	-0.241263
3.84333	67.365	-0.241306
3.84500	67.382	-0.241351
3.84667	67.398	-0.241395
3.84833	67.416	-0.241439
3.85000	67.432	-0.241493
3.85167	67.449	-0.241618
3.85333	67.465	-0.241714
3.85500	67.482	-0.241776
3.85667	67.499	-0.241825
3.85833	67.515	-0.241869
3.86000	67.532	-0.241914
3.86167	67.548	-0.241959
3.86333	67.566	-0.242000
3.86500	67.582	-0.242036
3.86667	67.598	-0.242070
3.86833	67.616	-0.242107
3.87000	67.632	-0.242149
3.87167	67.649	-0.242196
3.87333	67.666	-0.242241
3.87500	67.682	-0.242285
3.87667	67.700	-0.242327
3.87833	67.717	-0.242375
3.88000	67.733	-0.242463
3.88167	67.749	-0.242512
3.88333	67.766	-0.242562
3.88500	67.782	-0.242609
3.88667	67.799	-0.242656
3.88833	67.816	-0.242704
3.89000	67.833	-0.242750
3.89167	67.849	-0.242796
3.89333	67.865	-0.242839
3.89500	67.882	-0.242879
3.89667	67.899	-0.242925
3.89833	67.916	-0.242972
3.90000	67.933	-0.243021
3.90167	67.949	-0.243066
3.90333	67.966	-0.243109
3.90500	67.983	-0.243149
3.90667	67.999	-0.243186
3.90833	68.016	-0.243222
3.91000	68.033	-0.243257
3.91167	68.049	-0.243289
3.91333	68.066	-0.243322
3.91500	68.082	-0.243358
3.91667	68.099	-0.243401
3.91833	68.115	-0.243446
3.92000	68.133	-0.243497
3.92167	68.150	-0.243570
3.92333	68.165	-0.243643
3.92500	68.183	-0.243691
3.92667	68.199	-0.243739
3.92833	68.217	-0.243788
3.93000	68.233	-0.243831
3.93167	68.249	-0.243871
3.93333	68.267	-0.243912
3.93500	68.282	-0.243958
3.93667	68.300	-0.244007
3.93833	68.316	-0.244056
3.94000	68.333	-0.244103
3.94167	68.351	-0.244147
3.94333	68.367	-0.244188
3.94500	68.383	-0.244230
3.94667	68.401	-0.244271
3.94833	68.416	-0.244312
3.95000	68.432	-0.244350
3.95167	68.449	-0.244388
3.95333	68.466	-0.244424
3.95500	68.482	-0.244462
3.95667	68.499	-0.244500
3.95833	68.517	-0.244534
3.96000	68.532	-0.244572
3.96167	68.549	-0.244613
3.96333	68.567	-0.244654
3.96500	68.584	-0.244700
3.96667	68.601	-0.244759
3.96833	68.617	-0.244821
3.97000	68.635	-0.244920
3.97167	68.650	-0.244972
3.97333	68.666	-0.245015
3.97500	68.683	-0.245052
3.97667	68.700	-0.245088
3.97833	68.717	-0.245123
3.98000	68.734	-0.245163
3.98167	68.750	-0.245199
3.98333	68.767	-0.245237
3.98500	68.784	-0.245275
3.98667	68.801	-0.245313
3.98833	68.817	-0.245350
3.99000	68.834	-0.245388
3.99167	68.851	-0.245426
3.99333	68.868	-0.245464
3.99500	68.884	-0.245506
3.99667	68.900	-0.245549
3.99833	68.917	-0.245593
4.00000	68.934	-0.245638
4.00167	68.950	-0.245690
4.00333	68.967	-0.245735
4.00500	68.984	-0.245781
4.00667	69.000	-0.245824
4.00833	69.017	-0.245869
4.01000	69.034	-0.245911
4.01167	69.051	-0.245955
4.01333	69.068	-0.246000
4.01500	69.084	-0.246046
4.01667	69.101	-0.246088
4.01833	69.118	-0.246129
4.02000	69.135	-0.246166
4.02167	69.152	-0.246202
4.02333	69.168	-0.246236
4.02500	69.183	-0.246266
4.02667	69.200	-0.246300
4.02833	69.216	-0.246338
4.03000	69.233	-0.246382
4.03167	69.250	-0.246469
4.03333	69.267	-0.246534
4.03500	69.284	-0.246581
4.03667	69.300	-0.246637
4.03833	69.318	-0.246683
4.04000	69.334	-0.246726
4.04167	69.350	-0.246765
4.04333	69.367	-0.246796
4.04500	69.384	-0.246827
4.04667	69.401	-0.246856
4.04833	69.416	-0.246890
4.05000	69.434	-0.246923
4.05167	69.450	-0.246952
4.05333	69.467	-0.246985
4.05500	69.484	-0.247018
4.05667	69.500	-0.247052
4.05833	69.518	-0.247090
4.06000	69.534	-0.247143
4.06167	69.551	-0.247204
4.06333	69.568	-0.247276
4.06500	69.585	-0.247393
4.06667	69.602	-0.247520
4.06833	69.617	-0.247638
4.07000	69.634	-0.247728
4.07167	69.651	-0.247812
4.07333	69.667	-0.247911
4.07500	69.684	-0.247994
4.07667	69.701	-0.248042
4.07833	69.717	-0.248087
4.08000	69.734	-0.248128
4.08167	69.751	-0.248168
4.08333	69.767	-0.248204
4.08500	69.783	-0.248235
4.08667	69.800	-0.248266
4.08833	69.817	-0.248295
4.09000	69.834	-0.248325
4.09167	69.851	-0.248356
4.09333	69.867	-0.248391
4.09500	69.885	-0.248425
4.09667	69.901	-0.248458
4.09833	69.918	-0.248490
4.10000	69.935	-0.248523
4.10167	69.952	-0.248558
4.10333	69.968	-0.248593
4.10500	69.985	-0.248631
4.10667	70.002	-0.248671
4.10833	70.019	-0.248711
4.11000	70.035	-0.248750
4.11167	70.053	-0.248785
4.11333	70.068	-0.248821
4.11500	70.085	-0.248855
4.11667	70.103	-0.248889
4.11833	70.119	-0.248926
4.12000	70.135	-0.248963
4.12167	70.152	-0.248998
4.12333	70.169	-0.249029
4.12500	70.186	-0.249059
4.12667	70.202	-0.249087
4.12833	70.219	-0.249116
4.13000	70.235	-0.249139
4.13167	70.252	-0.249164
4.13333	70.269	-0.249189
4.13500	70.285	-0.249220
4.13667	70.303	-0.249255
4.13833	70.319	-0.249291
4.14000	70.336	-0.249326
4.14167	70.353	-0.249361
4.14333	70.369	-0.249394
4.14500	70.386	-0.249427
4.14667	70.402	-0.249460
4.14833	70.419	-0.249489
4.15000	70.436	-0.249519
4.15167	70.452	-0.249550
4.15333	70.468	-0.249581
4.15500	70.486	-0.249610
4.15667	70.503	-0.249641
4.15833	70.519	-0.249671
4.16000	70.536	-0.249701
4.16167	70.553	-0.249734
4.16333	70.569	-0.249768
4.16500	70.587	-0.249802
4.16667	70.603	-0.249835
4.16833	70.619	-0.249867
4.17000	70.636	-0.249898
4.17167	70.653	-0.249930
4.17333	70.670	-0.249960
4.17500	70.686	-0.249989
4.17667	70.703	-0.250015
4.17833	70.719	-0.250044
4.18000	70.736	-0.250076
4.18167	70.753	-0.250110
4.18333	70.769	-0.250144
4.18500	70.785	-0.250177
4.18667	70.804	-0.250206
4.18833	70.820	-0.250236
4.19000	70.836	-0.250264
4.19167	70.853	-0.250288
4.19333	70.870	-0.250311
4.19500	70.886	-0.250332
4.19667	70.903	-0.250356
4.19833	70.919	-0.250382
4.20000	70.936	-0.250410
4.20167	70.953	-0.250439
4.20333	70.970	-0.250465
4.20500	70.987	-0.250490
4.20667	71.004	-0.250515
4.20833	71.020	-0.250541
4.21000	71.037	-0.250567
4.21167	71.054	-0.250591
4.21333	71.071	-0.250619
4.21500	71.087	-0.250650
4.21667	71.104	-0.250683
4.21833	71.120	-0.250717
4.22000	71.137	-0.250752
4.22167	71.153	-0.250783
4.22333	71.169	-0.250813
4.22500	71.187	-0.250847
4.22667	71.203	-0.250878
4.22833	71.221	-0.250908
4.23000	71.237	-0.250937
4.23167	71.253	-0.250970
4.23333	71.271	-0.250997
4.23500	71.287	-0.251019
4.23667	71.304	-0.251038
4.23833	71.321	-0.251060
4.24000	71.338	-0.251082
4.24167	71.355	-0.251103
4.24333	71.371	-0.251128
4.24500	71.388	-0.251154
4.24667	71.405	-0.251177
4.24833	71.422	-0.251202
4.25000	71.438	-0.251233
4.25167	71.455	-0.251263
4.25333	71.471	-0.251294
4.25500	71.488	-0.251324
4.25667	71.505	-0.251357
4.25833	71.522	-0.251389
4.26000	71.538	-0.251420
4.26167	71.554	-0.251448
4.26333	71.571	-0.251477
4.26500	71.587	-0.251503
4.26667	71.604	-0.251527
4.26833	71.620	-0.251555
4.27000	71.638	-0.251590
4.27167	71.655	-0.251624
4.27333	71.672	-0.251659
4.27500	71.689	-0.251697
4.27667	71.705	-0.251730
4.27833	71.722	-0.251757
4.28000	71.738	-0.251777
4.28167	71.755	-0.251790
4.28333	71.771	-0.251806
4.28500	71.787	-0.251821
4.28667	71.803	-0.251839
4.28833	71.820	-0.251865
4.29000	71.837	-0.251894
4.29167	71.854	-0.251925
4.29333	71.870	-0.251958
4.29500	71.887	-0.251992
4.29667	71.904	-0.252023
4.29833	71.921	-0.252053
4.30000	71.937	-0.252078
4.30167	71.955	-0.252106
4.30333	71.973	-0.252133
4.30500	71.988	-0.252160
4.30667	72.006	-0.252189
4.30833	72.022	-0.252217
4.31000	72.040	-0.252245
4.31167	72.055	-0.252275
4.31333	72.073	-0.252306
4.31500	72.087	-0.252335
4.31667	72.105	-0.252368
4.31833	72.121	-0.252395
4.32000	72.137	-0.252422
4.32167	72.155	-0.252447
4.32333	72.171	-0.252473
4.32500	72.188	-0.252499
4.32667	72.205	-0.252525
4.32833	72.222	-0.252552
4.33000	72.239	-0.252580
4.33167	72.255	-0.252607
4.33333	72.271	-0.252635
4.33500	72.289	-0.252664
4.33667	72.305	-0.252690
4.33833	72.322	-0.252716
4.34000	72.339	-0.252736
4.34167	72.355	-0.252755
4.34333	72.371	-0.252776
4.34500	72.388	-0.252799
4.34667	72.404	-0.252823
4.34833	72.422	-0.252853
4.35000	72.437	-0.252881
4.35167	72.455	-0.252913
4.35333	72.472	-0.252944
4.35500	72.488	-0.252975
4.35667	72.505	-0.253004
4.35833	72.521	-0.253029
4.36000	72.538	-0.253048
4.36167	72.556	-0.253065
4.36333	72.571	-0.253084
4.36500	72.589	-0.253102
4.36667	72.605	-0.253120
4.36833	72.622	-0.253137
4.37000	72.639	-0.253160
4.37167	72.655	-0.253182
4.37333	72.672	-0.253208
4.37500	72.689	-0.253235
4.37667	72.706	-0.253259
4.37833	72.722	-0.253281
4.38000	72.738	-0.253306
4.38167	72.754	-0.253333
4.38333	72.772	-0.253360
4.38500	72.789	-0.253385
4.38667	72.806	-0.253410
4.38833	72.823	-0.253434
4.39000	72.839	-0.253458
4.39167	72.856	-0.253480
4.39333	72.872	-0.253503
4.39500	72.889	-0.253527
4.39667	72.905	-0.253550
4.39833	72.923	-0.253575
4.40000	72.939	-0.253601
4.40167	72.955	-0.253627
4.40333	72.972	-0.253656
4.40500	72.989	-0.253679
4.40667	73.005	-0.253705
4.40833	73.023	-0.253733
4.41000	73.038	-0.253758
4.41167	73.055	-0.253782
4.41333	73.072	-0.253807
4.41500	73.089	-0.253829
4.41667	73.106	-0.253851
4.41833	73.122	-0.253872
4.42000	73.139	-0.253887
4.42167	73.157	-0.253901
4.42333	73.172	-0.253914
4.42500	73.189	-0.253927
4.42667	73.206	-0.253944
4.42833	73.222	-0.253963
4.43000	73.239	-0.253982
4.43167	73.256	-0.254006
4.43333	73.273	-0.254031
4.43500	73.290	-0.254057
4.43667	73.306	-0.254082
4.43833	73.323	-0.254106
4.44000	73.339	-0.254127
4.44167	73.355	-0.254151
4.44333	73.373	-0.254177
4.44500	73.389	-0.254199
4.44667	73.406	-0.254219
4.44833	73.422	-0.254238
4.45000	73.439	-0.254260
4.45167	73.456	-0.254281
4.45333	73.473	-0.254303
4.45500	73.489	-0.254325
4.45667	73.506	-0.254347
4.45833	73.523	-0.254371
4.46000	73.539	-0.254396
4.46167	73.557	-0.254421
4.46333	73.574	-0.254443
4.46500	73.590	-0.254465
4.46667	73.607	-0.254483
4.46833	73.623	-0.254502
4.47000	73.639	-0.254523
4.47167	73.656	-0.254547
4.47333	73.673	-0.254570
4.47500	73.690	-0.254594
4.47667	73.707	-0.254618
4.47833	73.724	-0.254642
4.48000	73.741	-0.254662
4.48167	73.757	-0.254678
4.48333	73.773	-0.254691
4.48500	73.789	-0.254700
4.48667	73.807	-0.254712
4.48833	73.823	-0.254725
4.49000	73.840	-0.254737
4.49167	73.856	-0.254752
4.49333	73.872	-0.254773
4.49500	73.890	-0.254795
4.49667	73.906	-0.254819
4.49833	73.923	-0.254840
4.50000	73.940	-0.254860
4.50167	73.956	-0.254882
4.50333	73.973	-0.254906
4.50500	73.989	-0.254932
4.50667	74.006	-0.254956
4.50833	74.023	-0.254977
4.51000	74.040	-0.255001
4.51167	74.057	-0.255027
4.51333	74.073	-0.255053
4.51500	74.090	-0.255079
4.51667	74.106	-0.255103
4.51833	74.123	-0.255125
4.52000	74.139	-0.255148
4.52167	74.157	-0.255170
4.52333	74.173	-0.255189
4.52500	74.190	-0.255204
4.52667	74.207	-0.255216
4.52833	74.224	-0.255226
4.53000	74.240	-0.255234
4.53167	74.257	-0.255245
4.53333	74.274	-0.255259
4.53500	74.290	-0.255273
4.53667	74.307	-0.255287
4.53833	74.324	-0.255308
4.54000	74.340	-0.255329
4.54167	74.357	-0.255374
4.54333	74.373	-0.255446
4.54500	74.390	-0.255540
4.54667	74.407	-0.255623
4.54833	74.423	-0.255655
4.55000	74.440	-0.255683
4.55167	74.459	-0.255704
4.55333	74.474	-0.255716
4.55500	74.490	-0.255721
4.55667	74.507	-0.255725
4.55833	74.523	-0.255728
4.56000	74.540	-0.255738
4.56167	74.557	-0.255753
4.56333	74.573	-0.255779
4.56500	74.591	-0.255820
4.56667	74.607	-0.255863
4.56833	74.624	-0.255923
4.57000	74.641	-0.255952
4.57167	74.657	-0.255975
4.57333	74.674	-0.255990
4.57500	74.691	-0.256001
4.57667	74.707	-0.256010
4.57833	74.724	-0.256018
4.58000	74.741	-0.256026
4.58167	74.757	-0.256039
4.58333	74.774	-0.256055
4.58500	74.791	-0.256071
4.58667	74.808	-0.256092
4.58833	74.825	-0.256115
4.59000	74.841	-0.256139
4.59167	74.858	-0.256162
4.59333	74.874	-0.256185
4.59500	74.890	-0.256207
4.59667	74.907	-0.256235
4.59833	74.924	-0.256289
4.60000	74.941	-0.256341
4.60167	74.958	-0.256382
4.60333	74.973	-0.256408
4.60500	74.990	-0.256430
4.60667	75.008	-0.256448
4.60833	75.025	-0.256458
4.61000	75.042	-0.256465
4.61167	75.058	-0.256473
4.61333	75.075	-0.256485
4.61500	75.092	-0.256497
4.61667	75.109	-0.256511
4.61833	75.125	-0.256527
4.62000	75.142	-0.256547
4.62167	75.158	-0.256570
4.62333	75.175	-0.256592
4.62500	75.191	-0.256611
4.62667	75.207	-0.256622
4.62833	75.224	-0.256631
4.63000	75.241	-0.256637
4.63167	75.258	-0.256649
4.63333	75.276	-0.256661
4.63500	75.292	-0.256677
4.63667	75.308	-0.256691
4.63833	75.325	-0.256706
4.64000	75.342	-0.256723
4.64167	75.358	-0.256742
4.64333	75.375	-0.256762
4.64500	75.391	-0.256781
4.64667	75.408	-0.256796
4.64833	75.425	-0.256809
4.65000	75.443	-0.256823
4.65167	75.458	-0.256837
4.65333	75.475	-0.256855
4.65500	75.494	-0.256868
4.65667	75.510	-0.256882
4.65833	75.526	-0.256897
4.66000	75.543	-0.256911
4.66167	75.559	-0.256925
4.66333	75.575	-0.256941
4.66500	75.592	-0.256960
4.66667	75.609	-0.256982
4.66833	75.625	-0.257008
4.67000	75.642	-0.257033
4.67167	75.660	-0.257057
4.67333	75.676	-0.257082
4.67500	75.693	-0.257109
4.67667	75.709	-0.257135
4.67833	75.726	-0.257160
4.68000	75.742	-0.257183
4.68167	75.759	-0.257205
4.68333	75.775	-0.257230
4.68500	75.791	-0.257254
4.68667	75.809	-0.257275
4.68833	75.826	-0.257288
4.69000	75.843	-0.257295
4.69167	75.860	-0.257298
4.69333	75.876	-0.257298
4.69500	75.893	-0.257301
4.69667	75.909	-0.257307
4.69833	75.928	-0.257318
4.70000	75.942	-0.257330
4.70167	75.958	-0.257349
4.70333	75.976	-0.257370
4.70500	75.992	-0.257394
4.70667	76.009	-0.257417
4.70833	76.025	-0.257434
4.71000	76.042	-0.257446
4.71167	76.059	-0.257458
4.71333	76.076	-0.257473
4.71500	76.093	-0.257492
4.71667	76.109	-0.257520
4.71833	76.125	-0.257545
4.72000	76.143	-0.257570
4.72167	76.159	-0.257595
4.72333	76.176	-0.257632
4.72500	76.193	-0.257668
4.72667	76.208	-0.257692
4.72833	76.225	-0.257710
4.73000	76.242	-0.257725
4.73167	76.258	-0.257740
4.73333	76.275	-0.257754
4.73500	76.291	-0.257771
4.73667	76.309	-0.257788
4.73833	76.326	-0.257800
4.74000	76.343	-0.257812
4.74167	76.360	-0.257829
4.74333	76.376	-0.257847
4.74500	76.393	-0.257869
4.74667	76.409	-0.257891
4.74833	76.426	-0.257908
4.75000	76.443	-0.257922
4.75167	76.459	-0.257932
4.75333	76.476	-0.257946
4.75500	76.492	-0.257959
4.75667	76.508	-0.257971
4.75833	76.526	-0.257982
4.76000	76.542	-0.257994
4.76167	76.559	-0.258005
4.76333	76.577	-0.258020
4.76500	76.593	-0.258038
4.76667	76.610	-0.258052
4.76833	76.627	-0.258062
4.77000	76.643	-0.258070
4.77167	76.660	-0.258081
4.77333	76.676	-0.258092
4.77500	76.692	-0.258105
4.77667	76.709	-0.258123
4.77833	76.726	-0.258141
4.78000	76.743	-0.258161
4.78167	76.760	-0.258182
4.78333	76.777	-0.258202
4.78500	76.793	-0.258220
4.78667	76.810	-0.258234
4.78833	76.826	-0.258247
4.79000	76.843	-0.258255
4.79167	76.859	-0.258259
4.79333	76.876	-0.258264
4.79500	76.893	-0.258272
4.79667	76.910	-0.258282
4.79833	76.927	-0.258290
4.80000	76.943	-0.258300
4.80167	76.960	-0.258313
4.80333	76.976	-0.258328
4.80500	76.993	-0.258342
4.80667	77.010	-0.258356
4.80833	77.027	-0.258374
4.81000	77.043	-0.258390
4.81167	77.060	-0.258410
4.81333	77.077	-0.258429
4.81500	77.094	-0.258446
4.81667	77.110	-0.258463
4.81833	77.127	-0.258474
4.82000	77.144	-0.258490
4.82167	77.160	-0.258513
4.82333	77.176	-0.258531
4.82500	77.193	-0.258552
4.82667	77.210	-0.258580
4.82833	77.226	-0.258604
4.83000	77.243	-0.258625
4.83167	77.260	-0.258641
4.83333	77.277	-0.258655
4.83500	77.294	-0.258665
4.83667	77.310	-0.258670
4.83833	77.326	-0.258677
4.84000	77.344	-0.258687
4.84167	77.360	-0.258699
4.84333	77.377	-0.258715
4.84500	77.393	-0.258732
4.84667	77.411	-0.258748
4.84833	77.427	-0.258766
4.85000	77.443	-0.258786
4.85167	77.460	-0.258800
4.85333	77.477	-0.258809
4.85500	77.494	-0.258813
4.85667	77.511	-0.258819
4.85833	77.528	-0.258829
4.86000	77.544	-0.258841
4.86167	77.561	-0.258853
4.86333	77.578	-0.258862
4.86500	77.595	-0.258868
4.86667	77.611	-0.258872
4.86833	77.627	-0.258876
4.87000	77.643	-0.258876
4.87167	77.661	-0.258875
4.87333	77.676	-0.258872
4.87500	77.693	-0.258869
4.87667	77.709	-0.258873
4.87833	77.726	-0.258879
4.88000	77.743	-0.258893
4.88167	77.760	-0.258909
4.88333	77.777	-0.258929
4.88500	77.793	-0.258954
4.88667	77.810	-0.258981
4.88833	77.827	-0.259002
4.89000	77.844	-0.259025
4.89167	77.861	-0.259044
4.89333	77.876	-0.259062
4.89500	77.893	-0.259074
4.89667	77.910	-0.259084
4.89833	77.927	-0.259095
4.90000	77.944	-0.259107
4.90167	77.960	-0.259118
4.90333	77.978	-0.259132
4.90500	77.994	-0.259146
4.90667	78.009	-0.259160
4.90833	78.027	-0.259177
4.91000	78.044	-0.259194
4.91167	78.061	-0.259211
4.91333	78.077	-0.259221
4.91500	78.094	-0.259232
4.91667	78.110	-0.259244
4.91833	78.128	-0.259254
4.92000	78.143	-0.259265
4.92167	78.161	-0.259278
4.92333	78.178	-0.259287
4.92500	78.194	-0.259292
4.92667	78.211	-0.259298
4.92833	78.226	-0.259306
4.93000	78.244	-0.259312
4.93167	78.260	-0.259320
4.93333	78.276	-0.259328
4.93500	78.294	-0.259339
4.93667	78.310	-0.259351
4.93833	78.327	-0.259365
4.94000	78.344	-0.259383
4.94167	78.361	-0.259403
4.94333	78.377	-0.259418
4.94500	78.393	-0.259432
4.94667	78.411	-0.259444
4.94833	78.427	-0.259453
4.95000	78.444	-0.259461
4.95167	78.461	-0.259468
4.95333	78.477	-0.259478
4.95500	78.494	-0.259486
4.95667	78.511	-0.259494
4.95833	78.528	-0.259503
4.96000	78.545	-0.259516
4.96167	78.561	-0.259531
4.96333	78.578	-0.259546
4.96500	78.594	-0.259562
4.96667	78.611	-0.259577
4.96833	78.628	-0.259592
4.97000	78.644	-0.259607
4.97167	78.661	-0.259623
4.97333	78.678	-0.259637
4.97500	78.694	-0.259647
4.97667	78.711	-0.259658
4.97833	78.728	-0.259668
4.98000	78.744	-0.259677
4.98167	78.761	-0.259682
4.98333	78.778	-0.259684
4.98500	78.794	-0.259685
4.98667	78.812	-0.259686
4.98833	78.828	-0.259688
4.99000	78.844	-0.259696
4.99167	78.861	-0.259711
4.99333	78.878	-0.259729
4.99500	78.895	-0.259747
4.99667	78.910	-0.259766
4.99833	78.928	-0.259785
5.00000	78.945	-0.259800
5.00167	78.961	-0.259811
5.00333	78.978	-0.259819
5.00500	78.994	-0.259828
5.00667	79.011	-0.259837
5.00833	79.029	-0.259847
5.01000	79.044	-0.259863
5.01167	79.062	-0.259875
5.01333	79.078	-0.259887
5.01500	79.095	-0.259898
5.01667	79.112	-0.259913
5.01833	79.128	-0.259926
5.02000	79.144	-0.259939
5.02167	79.161	-0.259954
5.02333	79.178	-0.259968
5.02500	79.195	-0.259981
5.02667	79.211	-0.259989
5.02833	79.229	-0.259991
5.03000	79.245	-0.259989
5.03167	79.262	-0.259984
5.03333	79.279	-0.259977
5.03500	79.295	-0.259974
5.03667	79.312	-0.259973
5.03833	79.329	-0.259980
5.04000	79.346	-0.259991
5.04167	79.362	-0.260005
5.04333	79.378	-0.260020
5.04500	79.395	-0.260038
5.04667	79.412	-0.260056
5.04833	79.428	-0.260072
5.05000	79.446	-0.260086
5.05167	79.462	-0.260099
5.05333	79.478	-0.260110
5.05500	79.496	-0.260121
5.05667	79.512	-0.260132
5.05833	79.528	-0.260145
5.06000	79.546	-0.260155
5.06167	79.562	-0.260162
5.06333	79.579	-0.260170
5.06500	79.596	-0.260179
5.06667	79.613	-0.260190
5.06833	79.629	-0.260202
5.07000	79.647	-0.260209
5.07167	79.662	-0.260213
5.07333	79.679	-0.260219
5.07500	79.696	-0.260226
5.07667	79.712	-0.260235
5.07833	79.729	-0.260240
5.08000	79.746	-0.260243
5.08167	79.762	-0.260240
5.08333	79.778	-0.260240
5.08500	79.795	-0.260238
5.08667	79.812	-0.260238
5.08833	79.830	-0.260246
5.09000	79.846	-0.260255
5.09167	79.862	-0.260266
5.09333	79.879	-0.260283
5.09500	79.895	-0.260300
5.09667	79.913	-0.260315
5.09833	79.930	-0.260327
5.10000	79.945	-0.260339
5.10167	79.963	-0.260347
5.10333	79.980	-0.260352
5.10500	79.995	-0.260361
5.10667	80.011	-0.260374
5.10833	80.029	-0.260388
5.11000	80.045	-0.260406
5.11167	80.062	-0.260423
5.11333	80.079	-0.260442
5.11500	80.096	-0.260460
5.11667	80.112	-0.260473
5.11833	80.129	-0.260484
5.12000	80.146	-0.260491
5.12167	80.162	-0.260497
5.12333	80.179	-0.260505
5.12500	80.196	-0.260505
5.12667	80.213	-0.260501
5.12833	80.230	-0.260502
5.13000	80.247	-0.260504
5.13167	80.263	-0.260507
5.13333	80.279	-0.260510
5.13500	80.296	-0.260512
5.13667	80.313	-0.260517
5.13833	80.330	-0.260523
5.14000	80.346	-0.260528
5.14167	80.362	-0.260537
5.14333	80.379	-0.260544
5.14500	80.395	-0.260549
5.14667	80.412	-0.260560
5.14833	80.429	-0.260571
5.15000	80.445	-0.260580
5.15167	80.463	-0.260593
5.15333	80.480	-0.260603
5.15500	80.496	-0.260615
5.15667	80.513	-0.260626
5.15833	80.529	-0.260637
5.16000	80.546	-0.260643
5.16167	80.562	-0.260644
5.16333	80.579	-0.260647
5.16500	80.596	-0.260654
5.16667	80.613	-0.260662
5.16833	80.629	-0.260667
5.17000	80.646	-0.260680
5.17167	80.663	-0.260694
5.17333	80.679	-0.260705
5.17500	80.696	-0.260716
5.17667	80.713	-0.260728
5.17833	80.730	-0.260736
5.18000	80.746	-0.260738
5.18167	80.762	-0.260743
5.18333	80.779	-0.260753
5.18500	80.796	-0.260763
5.18667	80.813	-0.260773
5.18833	80.830	-0.260783
5.19000	80.847	-0.260796
5.19167	80.863	-0.260805
5.19333	80.880	-0.260812
5.19500	80.896	-0.260819
5.19667	80.913	-0.260820
5.19833	80.930	-0.260822
5.20000	80.945	-0.260824
5.20167	80.963	-0.260833
5.20333	80.979	-0.260843
5.20500	80.996	-0.260856
5.20667	81.012	-0.260869
5.20833	81.029	-0.260884
5.21000	81.045	-0.260903
5.21167	81.062	-0.260922
5.21333	81.079	-0.260940
5.21500	81.095	-0.260955
5.21667	81.112	-0.260966
5.21833	81.129	-0.260974
5.22000	81.147	-0.260982
5.22167	81.163	-0.260989
5.22333	81.180	-0.260995
5.22500	81.197	-0.261002
5.22667	81.213	-0.261008
5.22833	81.230	-0.261016
5.23000	81.246	-0.261022
5.23167	81.264	-0.261030
5.23333	81.280	-0.261038
5.23500	81.296	-0.261042
5.23667	81.313	-0.261044
5.23833	81.329	-0.261045
5.24000	81.347	-0.261046
5.24167	81.364	-0.261048
5.24333	81.380	-0.261055
5.24500	81.397	-0.261062
5.24667	81.413	-0.261072
5.24833	81.430	-0.261087
5.25000	81.446	-0.261105
5.25167	81.463	-0.261121
5.25333	81.480	-0.261134
5.25500	81.496	-0.261144
5.25667	81.513	-0.261150
5.25833	81.530	-0.261157
5.26000	81.546	-0.261167
5.26167	81.562	-0.261175
5.26333	81.579	-0.261185
5.26500	81.595	-0.261195
5.26667	81.614	-0.261205
5.26833	81.629	-0.261217
5.27000	81.646	-0.261228
5.27167	81.663	-0.261238
5.27333	81.680	-0.261251
5.27500	81.696	-0.261260
5.27667	81.713	-0.261271
5.27833	81.730	-0.261286
5.28000	81.746	-0.261296
5.28167	81.763	-0.261307
5.28333	81.779	-0.261318
5.28500	81.797	-0.261321
5.28667	81.813	-0.261324
5.28833	81.830	-0.261322
5.29000	81.847	-0.261324
5.29167	81.863	-0.261329
5.29333	81.880	-0.261335
5.29500	81.897	-0.261345
5.29667	81.914	-0.261359
5.29833	81.930	-0.261375
5.30000	81.946	-0.261390
5.30167	81.963	-0.261404
5.30333	81.980	-0.261418
5.30500	81.996	-0.261427
5.30667	82.013	-0.261437
5.30833	82.029	-0.261446
5.31000	82.047	-0.261454
5.31167	82.063	-0.261465
5.31333	82.080	-0.261477
5.31500	82.096	-0.261490
5.31667	82.114	-0.261505
5.31833	82.130	-0.261519
5.32000	82.147	-0.261529
5.32167	82.163	-0.261542
5.32333	82.180	-0.261549
5.32500	82.197	-0.261555
5.32667	82.214	-0.261561
5.32833	82.230	-0.261573
5.33000	82.247	-0.261586
5.33167	82.264	-0.261600
5.33333	82.280	-0.261611
5.33500	82.297	-0.261622
5.33667	82.313	-0.261632
5.33833	82.331	-0.261642
5.34000	82.347	-0.261651
5.34167	82.363	-0.261658
5.34333	82.380	-0.261663
5.34500	82.398	-0.261671
5.34667	82.414	-0.261687
5.34833	82.430	-0.261704
5.35000	82.447	-0.261728
5.35167	82.464	-0.261745
5.35333	82.480	-0.261760
5.35500	82.497	-0.261772
5.35667	82.514	-0.261779
5.35833	82.531	-0.261780
5.36000	82.547	-0.261780
5.36167	82.564	-0.261778
5.36333	82.581	-0.261781
5.36500	82.597	-0.261787
5.36667	82.613	-0.261794
5.36833	82.630	-0.261805
5.37000	82.647	-0.261816
5.37167	82.663	-0.261828
5.37333	82.680	-0.261842
5.37500	82.697	-0.261856
5.37667	82.713	-0.261868
5.37833	82.730	-0.261879
5.38000	82.747	-0.261892
5.38167	82.764	-0.261902
5.38333	82.781	-0.261907
5.38500	82.797	-0.261908
5.38667	82.814	-0.261909
5.38833	82.831	-0.261912
5.39000	82.847	-0.261912
5.39167	82.865	-0.261913
5.39333	82.881	-0.261915
5.39500	82.897	-0.261918
5.39667	82.914	-0.261924
5.39833	82.930	-0.261934
5.40000	82.948	-0.261946
5.40167	82.964	-0.261956
5.40333	82.980	-0.261965
5.40500	82.997	-0.261974
5.40667	83.013	-0.261980
5.40833	83.030	-0.261991
5.41000	83.046	-0.262000
5.41167	83.064	-0.262010
5.41333	83.081	-0.262021
5.41500	83.098	-0.262031
5.41667	83.115	-0.262043
5.41833	83.131	-0.262053
5.42000	83.148	-0.262062
5.42167	83.165	-0.262068
5.42333	83.181	-0.262074
5.42500	83.197	-0.262074
5.42667	83.214	-0.262078
5.42833	83.230	-0.262086
5.43000	83.248	-0.262096
5.43167	83.264	-0.262112
5.43333	83.281	-0.262130
5.43500	83.297	-0.262174
5.43667	83.314	-0.262206
5.43833	83.330	-0.262225
5.44000	83.347	-0.262239
5.44167	83.364	-0.262251
5.44333	83.381	-0.262259
5.44500	83.398	-0.262265
5.44667	83.414	-0.262269
5.44833	83.431	-0.262276
5.45000	83.448	-0.262282
5.45167	83.465	-0.262292
5.45333	83.481	-0.262304
5.45500	83.498	-0.262318
5.45667	83.514	-0.262330
5.45833	83.532	-0.262342
5.46000	83.548	-0.262352
5.46167	83.564	-0.262364
5.46333	83.580	-0.262375
5.46500	83.597	-0.262381
5.46667	83.615	-0.262386
5.46833	83.631	-0.262389
5.47000	83.648	-0.262392
5.47167	83.664	-0.262396
5.47333	83.681	-0.262400
5.47500	83.698	-0.262399
5.47667	83.715	-0.262396
5.47833	83.732	-0.262391
5.48000	83.748	-0.262390
5.48167	83.764	-0.262393
5.48333	83.781	-0.262398
5.48500	83.797	-0.262407
5.48667	83.815	-0.262415
5.48833	83.831	-0.262428
5.49000	83.847	-0.262443
5.49167	83.865	-0.262459
5.49333	83.880	-0.262473
5.49500	83.898	-0.262484
5.49667	83.914	-0.262495
5.49833	83.931	-0.262503
5.50000	83.948	-0.262513
5.50167	83.964	-0.262520
5.50333	83.981	-0.262529
5.50500	83.997	-0.262535
5.50667	84.016	-0.262544
5.50833	84.032	-0.262553
5.51000	84.048	-0.262564
5.51167	84.064	-0.262579
5.51333	84.082	-0.262595
5.51500	84.098	-0.262608
5.51667	84.116	-0.262620
5.51833	84.131	-0.262633
5.52000	84.149	-0.262642
5.52167	84.165	-0.262655
5.52333	84.181	-0.262663
5.52500	84.197	-0.262673
5.52667	84.215	-0.262682
5.52833	84.232	-0.262689
5.53000	84.248	-0.262700
5.53167	84.265	-0.262709
5.53333	84.281	-0.262716
5.53500	84.298	-0.262723
5.53667	84.315	-0.262729
5.53833	84.332	-0.262734
5.54000	84.349	-0.262743
5.54167	84.366	-0.262751
5.54333	84.382	-0.262758
5.54500	84.399	-0.262763
5.54667	84.415	-0.262768
5.54833	84.431	-0.262776
5.55000	84.448	-0.262785
5.55167	84.465	-0.262797
5.55333	84.481	-0.262809
5.55500	84.499	-0.262824
5.55667	84.515	-0.262840
5.55833	84.532	-0.262854
5.56000	84.549	-0.262867
5.56167	84.565	-0.262875
5.56333	84.582	-0.262881
5.56500	84.598	-0.262885
5.56667	84.615	-0.262890
5.56833	84.632	-0.262898
5.57000	84.649	-0.262905
5.57167	84.665	-0.262912
5.57333	84.681	-0.262921
5.57500	84.698	-0.262931
5.57667	84.716	-0.262944
5.57833	84.732	-0.262954
5.58000	84.749	-0.262960
5.58167	84.764	-0.262964
5.58333	84.781	-0.262971
5.58500	84.800	-0.262975
5.58667	84.815	-0.262981
5.58833	84.831	-0.262985
5.59000	84.849	-0.262984
5.59167	84.865	-0.262983
5.59333	84.882	-0.262982
5.59500	84.898	-0.262984
5.59667	84.915	-0.262989
5.59833	84.932	-0.262993
5.60000	84.949	-0.262999
5.60167	84.966	-0.263007
5.60333	84.982	-0.263016
5.60500	84.999	-0.263027
5.60667	85.015	-0.263037
5.60833	85.033	-0.263045
5.61000	85.049	-0.263049
5.61167	85.065	-0.263053
5.61333	85.082	-0.263054
5.61500	85.099	-0.263056
5.61667	85.116	-0.263058
5.61833	85.133	-0.263060
5.62000	85.150	-0.263058
5.62167	85.167	-0.263061
5.62333	85.182	-0.263067
5.62500	85.198	-0.263078
5.62667	85.215	-0.263092
5.62833	85.232	-0.263105
5.63000	85.249	-0.263119
5.63167	85.265	-0.263131
5.63333	85.282	-0.263143
5.63500	85.299	-0.263153
5.63667	85.316	-0.263159
5.63833	85.332	-0.263161
5.64000	85.349	-0.263164
5.64167	85.366	-0.263168
5.64333	85.383	-0.263173
5.64500	85.399	-0.263178
5.64667	85.416	-0.263182
5.64833	85.432	-0.263189
5.65000	85.449	-0.263197
5.65167	85.466	-0.263207
5.65333	85.483	-0.263220
5.65500	85.499	-0.263230
5.65667	85.516	-0.263242
5.65833	85.533	-0.263248
5.66000	85.549	-0.263257
5.66167	85.567	-0.263266
5.66333	85.583	-0.263276
5.66500	85.599	-0.263281
5.66667	85.616	-0.263288
5.66833	85.633	-0.263296
5.67000	85.649	-0.263305
5.67167	85.666	-0.263315
5.67333	85.683	-0.263330
5.67500	85.700	-0.263350
5.67667	85.717	-0.263363
5.67833	85.733	-0.263375
5.68000	85.750	-0.263385
5.68167	85.766	-0.263390
5.68333	85.784	-0.263392
5.68500	85.800	-0.263393
5.68667	85.817	-0.263393
5.68833	85.832	-0.263395
5.69000	85.849	-0.263397
5.69167	85.867	-0.263402
5.69333	85.884	-0.263411
5.69500	85.899	-0.263420
5.69667	85.916	-0.263432
5.69833	85.934	-0.263445
5.70000	85.949	-0.263455
5.70167	85.966	-0.263465
5.70333	85.983	-0.263474
5.70500	86.000	-0.263479
5.70667	86.016	-0.263485
5.70833	86.033	-0.263490
5.71000	86.050	-0.263496
5.71167	86.067	-0.263507
5.71333	86.083	-0.263513
5.71500	86.101	-0.263515
5.71667	86.116	-0.263518
5.71833	86.133	-0.263526
5.72000	86.151	-0.263537
5.72167	86.167	-0.263553
5.72333	86.184	-0.263566
5.72500	86.200	-0.263581
5.72667	86.216	-0.263592
5.72833	86.234	-0.263601
5.73000	86.251	-0.263611
5.73167	86.267	-0.263617
5.73333	86.284	-0.263617
5.73500	86.300	-0.263617
5.73667	86.317	-0.263619
5.73833	86.334	-0.263619
5.74000	86.350	-0.263625
5.74167	86.367	-0.263630
5.74333	86.383	-0.263637
5.74500	86.400	-0.263645
5.74667	86.415	-0.263655
5.74833	86.433	-0.263661
5.75000	86.450	-0.263665
5.75167	86.467	-0.263674
5.75333	86.484	-0.263686
5.75500	86.501	-0.263698
5.75667	86.517	-0.263708
5.75833	86.534	-0.263718
5.76000	86.551	-0.263727
5.76167	86.567	-0.263735
5.76333	86.584	-0.263741
5.76500	86.601	-0.263746
5.76667	86.618	-0.263750
5.76833	86.634	-0.263754
5.77000	86.651	-0.263759
5.77167	86.666	-0.263765
5.77333	86.684	-0.263772
5.77500	86.700	-0.263779
5.77667	86.717	-0.263786
5.77833	86.735	-0.263793
5.78000	86.750	-0.263800
5.78167	86.767	-0.263806
5.78333	86.784	-0.263811
5.78500	86.801	-0.263820
5.78667	86.817	-0.263833
5.78833	86.834	-0.263859
5.79000	86.851	-0.263877
5.79167	86.868	-0.263892
5.79333	86.885	-0.263908
5.79500	86.901	-0.263919
5.79667	86.918	-0.263925
5.79833	86.935	-0.263928
5.80000	86.951	-0.263928
5.80167	86.967	-0.263931
5.80333	86.984	-0.263936
5.80500	87.001	-0.263940
5.80667	87.018	-0.263947
5.80833	87.034	-0.263961
5.81000	87.051	-0.263969
5.81167	87.068	-0.263979
5.81333	87.084	-0.263990
5.81500	87.101	-0.263998
5.81667	87.118	-0.264002
5.81833	87.133	-0.264007
5.82000	87.151	-0.264015
5.82167	87.168	-0.264021
5.82333	87.184	-0.264025
5.82500	87.202	-0.264030
5.82667	87.218	-0.264036
5.82833	87.235	-0.264039
5.83000	87.251	-0.264046
5.83167	87.268	-0.264057
5.83333	87.284	-0.264067
5.83500	87.300	-0.264078
5.83667	87.317	-0.264089
5.83833	87.335	-0.264098
5.84000	87.351	-0.264105
5.84167	87.368	-0.264108
5.84333	87.384	-0.264109
5.84500	87.401	-0.264106
5.84667	87.418	-0.264104
5.84833	87.434	-0.264103
5.85000	87.451	-0.264102
5.85167	87.467	-0.264104
5.85333	87.484	-0.264107
5.85500	87.500	-0.264112
5.85667	87.519	-0.264119
5.85833	87.535	-0.264130
5.86000	87.551	-0.264143
5.86167	87.568	-0.264156
5.86333	87.585	-0.264166
5.86500	87.602	-0.264177
5.86667	87.619	-0.264187
5.86833	87.635	-0.264198
5.87000	87.652	-0.264208
5.87167	87.668	-0.264221
5.87333	87.684	-0.264232
5.87500	87.700	-0.264242
5.87667	87.717	-0.264253
5.87833	87.734	-0.264263
5.88000	87.751	-0.264272
5.88167	87.769	-0.264280
5.88333	87.784	-0.264290
5.88500	87.801	-0.264300
5.88667	87.818	-0.264309
5.88833	87.834	-0.264315
5.89000	87.851	-0.264320
5.89167	87.867	-0.264322
5.89333	87.884	-0.264322
5.89500	87.901	-0.264325
5.89667	87.917	-0.264326
5.89833	87.934	-0.264323
5.90000	87.951	-0.264323
5.90167	87.967	-0.264328
5.90333	87.984	-0.264338
5.90500	88.001	-0.264351
5.90667	88.017	-0.264367
5.90833	88.035	-0.264379
5.91000	88.050	-0.264388
5.91167	88.069	-0.264398
5.91333	88.085	-0.264405
5.91500	88.101	-0.264408
5.91667	88.118	-0.264409
5.91833	88.134	-0.264410
5.92000	88.151	-0.264416
5.92167	88.168	-0.264421
5.92333	88.184	-0.264427
5.92500	88.201	-0.264435
5.92667	88.218	-0.264443
5.92833	88.236	-0.264450
5.93000	88.251	-0.264462
5.93167	88.268	-0.264474
5.93333	88.285	-0.264484
5.93500	88.301	-0.264493
5.93667	88.318	-0.264505
5.93833	88.334	-0.264522
5.94000	88.351	-0.264537
5.94167	88.368	-0.264547
5.94333	88.384	-0.264555
5.94500	88.401	-0.264560
5.94667	88.418	-0.264562
5.94833	88.434	-0.264564
5.95000	88.451	-0.264565
5.95167	88.468	-0.264566
5.95333	88.485	-0.264569
5.95500	88.502	-0.264572
5.95667	88.518	-0.264577
5.95833	88.535	-0.264586
5.96000	88.552	-0.264598
5.96167	88.568	-0.264605
5.96333	88.585	-0.264611
5.96500	88.602	-0.264617
5.96667	88.619	-0.264625
5.96833	88.635	-0.264631
5.97000	88.651	-0.264639
5.97167	88.668	-0.264646
5.97333	88.685	-0.264655
5.97500	88.701	-0.264667
5.97667	88.718	-0.264679
5.97833	88.735	-0.264691
5.98000	88.751	-0.264700
5.98167	88.769	-0.264703
5.98333	88.785	-0.264705
5.98500	88.801	-0.264712
5.98667	88.818	-0.264714
5.98833	88.835	-0.264715
5.99000	88.852	-0.264709
5.99167	88.868	-0.264702
5.99333	88.885	-0.264702
5.99500	88.902	-0.264706
5.99667	88.919	-0.264711
5.99833	88.934	-0.264717
6.00000	88.952	-0.264723
6.00167	88.969	-0.264732
6.00333	88.985	-0.264745
6.00500	89.002	-0.264757
6.00667	89.018	-0.264768
6.00833	89.035	-0.264784
6.01000	89.052	-0.264799
6.01167	89.068	-0.264820
6.01333	89.085	-0.264836
6.01500	89.103	-0.264858
6.01667	89.119	-0.264872
6.01833	89.136	-0.264882
6.02000	89.152	-0.264885
6.02167	89.169	-0.264882
6.02333	89.185	-0.264869
6.02500	89.202	-0.264840
6.02667	89.219	-0.264833
6.02833	89.234	-0.264825
6.03000	89.252	-0.264822
6.03167	89.268	-0.264823
6.03333	89.285	-0.264830
6.03500	89.301	-0.264839
6.03667	89.319	-0.264850
6.03833	89.336	-0.264859
6.04000	89.353	-0.264870
6.04167	89.369	-0.264880
6.04333	89.385	-0.264892
6.04500	89.401	-0.264902
6.04667	89.419	-0.264909
6.04833	89.435	-0.264915
6.05000	89.451	-0.264919
6.05167	89.468	-0.264922
6.05333	89.485	-0.264927
6.05500	89.502	-0.264935
6.05667	89.519	-0.264944
6.05833	89.536	-0.264954
6.06000	89.553	-0.264965
6.06167	89.569	-0.264977
6.06333	89.585	-0.264988
6.06500	89.603	-0.264995
6.06667	89.619	-0.265001
6.06833	89.636	-0.265006
6.07000	89.653	-0.265010
6.07167	89.669	-0.265015
6.07333	89.686	-0.265018
6.07500	89.702	-0.265021
6.07667	89.720	-0.265026
6.07833	89.736	-0.265031
6.08000	89.752	-0.265034
6.08167	89.769	-0.265037
6.08333	89.786	-0.265039
6.08500	89.803	-0.265040
6.08667	89.819	-0.265039
6.08833	89.835	-0.265041
6.09000	89.852	-0.265049
6.09167	89.869	-0.265055
6.09333	89.885	-0.265057
6.09500	89.902	-0.265060
6.09667	89.920	-0.265062
6.09833	89.936	-0.265069
6.10000	89.952	-0.265076
6.10167	89.969	-0.265083
6.10333	89.986	-0.265091
6.10500	90.002	-0.265097
6.10667	90.020	-0.265106
6.10833	90.037	-0.265115
6.11000	90.053	-0.265122
6.11167	90.069	-0.265126
6.11333	90.085	-0.265129
6.11500	90.101	-0.265134
6.11667	90.119	-0.265141
6.11833	90.135	-0.265152
6.12000	90.152	-0.265158
6.12167	90.169	-0.265163
6.12333	90.186	-0.265173
6.12500	90.202	-0.265185
6.12667	90.219	-0.265195
6.12833	90.236	-0.265199
6.13000	90.252	-0.265195
6.13167	90.269	-0.265193
6.13333	90.286	-0.265190
6.13500	90.303	-0.265193
6.13667	90.318	-0.265198
6.13833	90.335	-0.265202
6.14000	90.352	-0.265204
6.14167	90.369	-0.265213
6.14333	90.386	-0.265225
6.14500	90.403	-0.265238
6.14667	90.419	-0.265250
6.14833	90.436	-0.265254
6.15000	90.452	-0.265256
6.15167	90.470	-0.265259
6.15333	90.486	-0.265262
6.15500	90.503	-0.265266
6.15667	90.519	-0.265269
6.15833	90.537	-0.265271
6.16000	90.554	-0.265268
6.16167	90.569	-0.265265
6.16333	90.586	-0.265263
6.16500	90.602	-0.265265
6.16667	90.619	-0.265269
6.16833	90.636	-0.265273
6.17000	90.652	-0.265279
6.17167	90.668	-0.265286
6.17333	90.686	-0.265300
6.17500	90.702	-0.265314
6.17667	90.719	-0.265326
6.17833	90.736	-0.265336
6.18000	90.752	-0.265343
6.18167	90.769	-0.265346
6.18333	90.786	-0.265348
6.18500	90.803	-0.265346
6.18667	90.819	-0.265349
6.18833	90.837	-0.265355
6.19000	90.853	-0.265364
6.19167	90.870	-0.265373
6.19333	90.887	-0.265381
6.19500	90.904	-0.265386
6.19667	90.919	-0.265391
6.19833	90.936	-0.265399
6.20000	90.953	-0.265404
6.20167	90.970	-0.265408
6.20333	90.987	-0.265408
6.20500	91.003	-0.265407
6.20667	91.020	-0.265409
6.20833	91.037	-0.265413
6.21000	91.054	-0.265417
6.21167	91.070	-0.265424
6.21333	91.087	-0.265427
6.21500	91.104	-0.265431
6.21667	91.120	-0.265440
6.21833	91.137	-0.265453
6.22000	91.153	-0.265466
6.22167	91.171	-0.265480
6.22333	91.187	-0.265494
6.22500	91.204	-0.265508
6.22667	91.220	-0.265518
6.22833	91.237	-0.265528
6.23000	91.252	-0.265542
6.23167	91.270	-0.265554
6.23333	91.286	-0.265564
6.23500	91.302	-0.265573
6.23667	91.319	-0.265582
6.23833	91.335	-0.265591
6.24000	91.354	-0.265595
6.24167	91.370	-0.265596
6.24333	91.387	-0.265597
6.24500	91.403	-0.265591
6.24667	91.420	-0.265582
6.24833	91.437	-0.265579
6.25000	91.453	-0.265577
6.25167	91.470	-0.265580
6.25333	91.486	-0.265591
6.25500	91.503	-0.265605
6.25667	91.520	-0.265633
6.25833	91.537	-0.265683
6.26000	91.553	-0.265706
6.26167	91.571	-0.265724
6.26333	91.587	-0.265737
6.26500	91.604	-0.265744
6.26667	91.619	-0.265749
6.26833	91.637	-0.265748
6.27000	91.653	-0.265743
6.27167	91.670	-0.265740
6.27333	91.686	-0.265738
6.27500	91.704	-0.265736
6.27667	91.720	-0.265736
6.27833	91.737	-0.265737
6.28000	91.754	-0.265738
6.28167	91.770	-0.265738
6.28333	91.788	-0.265738
6.28500	91.804	-0.265742
6.28667	91.820	-0.265743
6.28833	91.837	-0.265744
6.29000	91.854	-0.265748
6.29167	91.870	-0.265756
6.29333	91.886	-0.265762
6.29500	91.904	-0.265769
6.29667	91.920	-0.265778
6.29833	91.937	-0.265786
6.30000	91.954	-0.265794
6.30167	91.970	-0.265798
6.30333	91.986	-0.265806
6.30500	92.003	-0.265810
6.30667	92.020	-0.265812
6.30833	92.037	-0.265813
6.31000	92.054	-0.265814
6.31167	92.070	-0.265816
6.31333	92.087	-0.265820
6.31500	92.104	-0.265826
6.31667	92.121	-0.265832
6.31833	92.137	-0.265838
6.32000	92.154	-0.265842
6.32167	92.170	-0.265848
6.32333	92.186	-0.265851
6.32500	92.203	-0.265855
6.32667	92.221	-0.265860
6.32833	92.237	-0.265868
6.33000	92.254	-0.265876
6.33167	92.270	-0.265882
6.33333	92.287	-0.265892
6.33500	92.304	-0.265897
6.33667	92.320	-0.265902
6.33833	92.337	-0.265904
6.34000	92.353	-0.265907
6.34167	92.371	-0.265906
6.34333	92.387	-0.265909
6.34500	92.404	-0.265914
6.34667	92.421	-0.265916
6.34833	92.438	-0.265917
6.35000	92.454	-0.265915
6.35167	92.471	-0.265916
6.35333	92.487	-0.265912
6.35500	92.504	-0.265907
6.35667	92.520	-0.265902
6.35833	92.537	-0.265901
6.36000	92.553	-0.265905
6.36167	92.571	-0.265914
6.36333	92.587	-0.265924
6.36500	92.603	-0.265938
6.36667	92.621	-0.265952
6.36833	92.637	-0.265965
6.37000	92.653	-0.265975
6.37167	92.670	-0.265982
6.37333	92.687	-0.265982
6.37500	92.703	-0.265983
6.37667	92.721	-0.265984
6.37833	92.737	-0.265987
6.38000	92.754	-0.265989
6.38167	92.770	-0.265992
6.38333	92.787	-0.265995
6.38500	92.804	-0.266003
6.38667	92.821	-0.266015
6.38833	92.837	-0.266027
6.39000	92.854	-0.266038
6.39167	92.871	-0.266046
6.39333	92.887	-0.266055
6.39500	92.903	-0.266062
6.39667	92.920	-0.266070
6.39833	92.937	-0.266074
6.40000	92.953	-0.266076
6.40167	92.970	-0.266076
6.40333	92.987	-0.266076
6.40500	93.004	-0.266077
6.40667	93.020	-0.266077
6.40833	93.036	-0.266080
6.41000	93.054	-0.266082
6.41167	93.069	-0.266084
6.41333	93.088	-0.266090
6.41500	93.104	-0.266099
6.41667	93.121	-0.266104
6.41833	93.139	-0.266108
6.42000	93.155	-0.266115
6.42167	93.171	-0.266121
6.42333	93.187	-0.266128
6.42500	93.204	-0.266140
6.42667	93.220	-0.266154
6.42833	93.237	-0.266163
6.43000	93.254	-0.266172
6.43167	93.270	-0.266184
6.43333	93.287	-0.266191
6.43500	93.304	-0.266199
6.43667	93.320	-0.266203
6.43833	93.337	-0.266209
6.44000	93.354	-0.266210
6.44167	93.371	-0.266213
6.44333	93.387	-0.266215
6.44500	93.403	-0.266222
6.44667	93.421	-0.266229
6.44833	93.438	-0.266239
6.45000	93.455	-0.266248
6.45167	93.472	-0.266257
6.45333	93.487	-0.266268
6.45500	93.504	-0.266277
6.45667	93.522	-0.266288
6.45833	93.538	-0.266300
6.46000	93.555	-0.266316
6.46167	93.571	-0.266325
6.46333	93.588	-0.266338
6.46500	93.604	-0.266345
6.46667	93.621	-0.266351
6.46833	93.637	-0.266356
6.47000	93.654	-0.266359
6.47167	93.672	-0.266363
6.47333	93.687	-0.266367
6.47500	93.705	-0.266374
6.47667	93.721	-0.266387
6.47833	93.737	-0.266399
6.48000	93.755	-0.266409
6.48167	93.771	-0.266418
6.48333	93.788	-0.266425
6.48500	93.804	-0.266432
6.48667	93.821	-0.266440
6.48833	93.838	-0.266443
6.49000	93.855	-0.266444
6.49167	93.871	-0.266447
6.49333	93.886	-0.266454
6.49500	93.905	-0.266463
6.49667	93.921	-0.266469
6.49833	93.938	-0.266475
6.50000	93.954	-0.266483
6.50167	93.971	-0.266495
6.50333	93.987	-0.266510
6.50500	94.004	-0.266528
6.50667	94.020	-0.266542
6.50833	94.037	-0.266552
6.51000	94.055	-0.266557
6.51167	94.072	-0.266559
6.51333	94.088	-0.266561
6.51500	94.105	-0.266559
6.51667	94.123	-0.266555
6.51833	94.138	-0.266557
6.52000	94.155	-0.266564
6.52167	94.172	-0.266573
6.52333	94.188	-0.266579
6.52500	94.205	-0.266586
6.52667	94.221	-0.266592
6.52833	94.238	-0.266596
6.53000	94.255	-0.266599
6.53167	94.271	-0.266605
6.53333	94.288	-0.266610
6.53500	94.305	-0.266620
6.53667	94.322	-0.266636
6.53833	94.337	-0.266653
6.54000	94.354	-0.266668
6.54167	94.372	-0.266678
6.54333	94.389	-0.266689
6.54500	94.406	-0.266698
6.54667	94.423	-0.266707
6.54833	94.439	-0.266714
6.55000	94.456	-0.266717
6.55167	94.473	-0.266717
6.55333	94.489	-0.266719
6.55500	94.505	-0.266727
6.55667	94.523	-0.266734
6.55833	94.538	-0.266738
6.56000	94.555	-0.266741
6.56167	94.571	-0.266745
6.56333	94.589	-0.266752
6.56500	94.605	-0.266760
6.56667	94.622	-0.266767
6.56833	94.638	-0.266770
6.57000	94.656	-0.266775
6.57167	94.672	-0.266774
6.57333	94.688	-0.266774
6.57500	94.705	-0.266775
6.57667	94.722	-0.266774
6.57833	94.739	-0.266778
6.58000	94.755	-0.266784
6.58167	94.773	-0.266792
6.58333	94.789	-0.266798
6.58500	94.806	-0.266806
6.58667	94.822	-0.266814
6.58833	94.839	-0.266823
6.59000	94.855	-0.266830
6.59167	94.873	-0.266834
6.59333	94.889	-0.266838
6.59500	94.906	-0.266844
6.59667	94.923	-0.266850
6.59833	94.940	-0.266856
6.60000	94.956	-0.266860
6.60167	94.972	-0.266862
6.60333	94.989	-0.266863
6.60500	95.006	-0.266869
6.60667	95.023	-0.266872
6.60833	95.039	-0.266877
6.61000	95.055	-0.266881
6.61167	95.072	-0.266891
6.61333	95.089	-0.266904
6.61500	95.106	-0.266915
6.61667	95.122	-0.266924
6.61833	95.139	-0.266935
6.62000	95.155	-0.266941
6.62167	95.172	-0.266945
6.62333	95.189	-0.266950
6.62500	95.205	-0.266955
6.62667	95.222	-0.266961
6.62833	95.239	-0.266967
6.63000	95.255	-0.266974
6.63167	95.273	-0.266978
6.63333	95.289	-0.266982
6.63500	95.305	-0.266986
6.63667	95.323	-0.266992
6.63833	95.339	-0.266997
6.64000	95.354	-0.267005
6.64167	95.372	-0.267007
6.64333	95.389	-0.267009
6.64500	95.406	-0.267015
6.64667	95.421	-0.267025
6.64833	95.440	-0.267029
6.65000	95.455	-0.267028
6.65167	95.472	-0.267026
6.65333	95.488	-0.267024
6.65500	95.506	-0.267024
6.65667	95.522	-0.267025
6.65833	95.538	-0.267029
6.66000	95.555	-0.267031
6.66167	95.573	-0.267029
6.66333	95.589	-0.267031
6.66500	95.605	-0.267035
6.66667	95.623	-0.267042
6.66833	95.639	-0.267051
6.67000	95.655	-0.267061
6.67167	95.672	-0.267072
6.67333	95.689	-0.267082
6.67500	95.705	-0.267088
6.67667	95.722	-0.267096
6.67833	95.739	-0.267104
6.68000	95.755	-0.267112
6.68167	95.773	-0.267121
6.68333	95.789	-0.267127
6.68500	95.806	-0.267131
6.68667	95.823	-0.267134
6.68833	95.838	-0.267137
6.69000	95.855	-0.267144
6.69167	95.872	-0.267152
6.69333	95.889	-0.267158
6.69500	95.905	-0.267164
6.69667	95.922	-0.267168
6.69833	95.939	-0.267176
6.70000	95.956	-0.267190
6.70167	95.973	-0.267207
6.70333	95.990	-0.267220
6.70500	96.005	-0.267227
6.70667	96.023	-0.267235
6.70833	96.039	-0.267242
6.71000	96.056	-0.267247
6.71167	96.073	-0.267250
6.71333	96.089	-0.267251
6.71500	96.105	-0.267248
6.71667	96.122	-0.267246
6.71833	96.139	-0.267248
6.72000	96.155	-0.267257
6.72167	96.174	-0.267262
6.72333	96.190	-0.267264
6.72500	96.207	-0.267268
6.72667	96.223	-0.267273
6.72833	96.239	-0.267279
6.73000	96.256	-0.267287
6.73167	96.273	-0.267295
6.73333	96.288	-0.267302
6.73500	96.305	-0.267308
6.73667	96.323	-0.267317
6.73833	96.339	-0.267332
6.74000	96.355	-0.267345
6.74167	96.373	-0.267352
6.74333	96.390	-0.267356
6.74500	96.406	-0.267360
6.74667	96.422	-0.267365
6.74833	96.439	-0.267373
6.75000	96.456	-0.267382
6.75167	96.474	-0.267394
6.75333	96.490	-0.267405
6.75500	96.507	-0.267417
6.75667	96.523	-0.267431
6.75833	96.539	-0.267440
6.76000	96.557	-0.267442
6.76167	96.572	-0.267439
6.76333	96.590	-0.267432
6.76500	96.606	-0.267428
6.76667	96.622	-0.267425
6.76833	96.640	-0.267426
6.77000	96.656	-0.267428
6.77167	96.672	-0.267432
6.77333	96.689	-0.267439
6.77500	96.707	-0.267448
6.77667	96.723	-0.267454
6.77833	96.739	-0.267460
6.78000	96.756	-0.267466
6.78167	96.774	-0.267469
6.78333	96.790	-0.267469
6.78500	96.806	-0.267471
6.78667	96.823	-0.267475
6.78833	96.840	-0.267476
6.79000	96.857	-0.267478
6.79167	96.872	-0.267482
6.79333	96.889	-0.267489
6.79500	96.907	-0.267493
6.79667	96.923	-0.267501
6.79833	96.938	-0.267507
6.80000	96.955	-0.267513
6.80167	96.972	-0.267516
6.80333	96.989	-0.267522
6.80500	97.005	-0.267531
6.80667	97.023	-0.267540
6.80833	97.040	-0.267549
6.81000	97.056	-0.267555
6.81167	97.072	-0.267568
6.81333	97.089	-0.267580
6.81500	97.105	-0.267593
6.81667	97.122	-0.267604
6.81833	97.139	-0.267613
6.82000	97.156	-0.267623
6.82167	97.173	-0.267636
6.82333	97.190	-0.267648
6.82500	97.206	-0.267657
6.82667	97.223	-0.267660
6.82833	97.239	-0.267662
6.83000	97.256	-0.267668
6.83167	97.273	-0.267677
6.83333	97.289	-0.267681
6.83500	97.306	-0.267686
6.83667	97.323	-0.267693
6.83833	97.338	-0.267700
6.84000	97.356	-0.267714
6.84167	97.372	-0.267727
6.84333	97.388	-0.267741
6.84500	97.406	-0.267751
6.84667	97.423	-0.267763
6.84833	97.440	-0.267770
6.85000	97.456	-0.267778
6.85167	97.473	-0.267782
6.85333	97.488	-0.267787
6.85500	97.506	-0.267795
6.85667	97.522	-0.267803
6.85833	97.539	-0.267815
6.86000	97.555	-0.267827
6.86167	97.573	-0.267840
6.86333	97.589	-0.267850
6.86500	97.606	-0.267865
6.86667	97.623	-0.267876
6.86833	97.640	-0.267886
6.87000	97.656	-0.267892
6.87167	97.672	-0.267901
6.87333	97.689	-0.267910
6.87500	97.706	-0.267914
6.87667	97.722	-0.267917
6.87833	97.739	-0.267922
6.88000	97.756	-0.267926
6.88167	97.773	-0.267928
6.88333	97.789	-0.267932
6.88500	97.806	-0.267939
6.88667	97.823	-0.267947
6.88833	97.839	-0.267953
6.89000	97.856	-0.267965
6.89167	97.872	-0.267977
6.89333	97.889	-0.267985
6.89500	97.906	-0.267991
6.89667	97.924	-0.268000
6.89833	97.940	-0.268009
6.90000	97.956	-0.268016
6.90167	97.972	-0.268022
6.90333	97.990	-0.268029
6.90500	98.006	-0.268032
6.90667	98.024	-0.268034
6.90833	98.040	-0.268035
6.91000	98.056	-0.268034
6.91167	98.072	-0.268031
6.91333	98.090	-0.268029
6.91500	98.106	-0.268030
6.91667	98.123	-0.268034
6.91833	98.140	-0.268039
6.92000	98.157	-0.268049
6.92167	98.174	-0.268064
6.92333	98.191	-0.268078
6.92500	98.207	-0.268088
6.92667	98.223	-0.268096
6.92833	98.241	-0.268104
6.93000	98.257	-0.268115
6.93167	98.274	-0.268126
6.93333	98.290	-0.268139
6.93500	98.307	-0.268150
6.93667	98.323	-0.268161
6.93833	98.340	-0.268178
6.94000	98.357	-0.268191
6.94167	98.373	-0.268197
6.94333	98.390	-0.268200
6.94500	98.407	-0.268202
6.94667	98.424	-0.268201
6.94833	98.440	-0.268198
6.95000	98.458	-0.268199
6.95167	98.475	-0.268205
6.95333	98.490	-0.268213
6.95500	98.507	-0.268220
6.95667	98.524	-0.268231
6.95833	98.540	-0.268244
6.96000	98.556	-0.268253
6.96167	98.574	-0.268260
6.96333	98.590	-0.268271
6.96500	98.607	-0.268281
6.96667	98.624	-0.268291
6.96833	98.640	-0.268304
6.97000	98.657	-0.268319
6.97167	98.674	-0.268336
6.97333	98.691	-0.268352
6.97500	98.707	-0.268366
6.97667	98.725	-0.268378
6.97833	98.741	-0.268382
6.98000	98.757	-0.268383
6.98167	98.774	-0.268383
6.98333	98.790	-0.268382
6.98500	98.807	-0.268381
6.98667	98.823	-0.268378
6.98833	98.840	-0.268380
6.99000	98.857	-0.268383
6.99167	98.873	-0.268386
6.99333	98.891	-0.268390
6.99500	98.908	-0.268396
6.99667	98.924	-0.268403
6.99833	98.941	-0.268411
7.00000	98.957	-0.268420
7.00167	98.974	-0.268424
7.00333	98.991	-0.268429
7.00500	99.007	-0.268426
7.00667	99.024	-0.268424
7.00833	99.041	-0.268420
7.01000	99.058	-0.268417
7.01167	99.074	-0.268414
7.01333	99.091	-0.268419
7.01500	99.107	-0.268427
7.01667	99.124	-0.268440
7.01833	99.141	-0.268455
7.02000	99.158	-0.268472
7.02167	99.174	-0.268486
7.02333	99.192	-0.268497
7.02500	99.208	-0.268508
7.02667	99.225	-0.268517
7.02833	99.242	-0.268525
7.03000	99.258	-0.268535
7.03167	99.274	-0.268548
7.03333	99.291	-0.268562
7.03500	99.308	-0.268573
7.03667	99.325	-0.268583
7.03833	99.341	-0.268593
7.04000	99.358	-0.268597
7.04167	99.374	-0.268596
7.04333	99.390	-0.268597
7.04500	99.408	-0.268597
7.04667	99.424	-0.268599
7.04833	99.441	-0.268605
7.05000	99.458	-0.268611
7.05167	99.474	-0.268619
7.05333	99.491	-0.268632
7.05500	99.508	-0.268643
7.05667	99.525	-0.268656
7.05833	99.542	-0.268671
7.06000	99.558	-0.268685
7.06167	99.575	-0.268699
7.06333	99.591	-0.268711
7.06500	99.609	-0.268726
7.06667	99.624	-0.268742
7.06833	99.641	-0.268759
7.07000	99.658	-0.268769
7.07167	99.674	-0.268776
7.07333	99.692	-0.268779
7.07500	99.708	-0.268776
7.07667	99.724	-0.268770
7.07833	99.742	-0.268768
7.08000	99.758	-0.268768
7.08167	99.774	-0.268764
7.08333	99.791	-0.268760
7.08500	99.808	-0.268759
7.08667	99.824	-0.268766
7.08833	99.840	-0.268778
7.09000	99.858	-0.268794
7.09167	99.875	-0.268807
7.09333	99.890	-0.268818
7.09500	99.907	-0.268825
7.09667	99.924	-0.268835
7.09833	99.942	-0.268848
7.10000	99.958	-0.268858
7.10167	99.975	-0.268864
7.10333	99.991	-0.268869
7.10500	100.008	-0.268871
7.10667	100.025	-0.268873
7.10833	100.041	-0.268880
7.11000	100.058	-0.268884
7.11167	100.074	-0.268888
7.11333	100.090	-0.268887
7.11500	100.107	-0.268890
7.11667	100.124	-0.268894
7.11833	100.140	-0.268901
7.12000	100.157	-0.268906
7.12167	100.174	-0.268916
7.12333	100.191	-0.268926
7.12500	100.207	-0.268935
7.12667	100.224	-0.268950
7.12833	100.242	-0.268961
7.13000	100.258	-0.268970
7.13167	100.275	-0.268975
7.13333	100.291	-0.268977
7.13500	100.308	-0.268978
7.13667	100.323	-0.268981
7.13833	100.341	-0.268986
7.14000	100.357	-0.268993
7.14167	100.375	-0.269000
7.14333	100.391	-0.269008
7.14500	100.408	-0.269020
7.14667	100.425	-0.269029
7.14833	100.441	-0.269042
7.15000	100.458	-0.269053
7.15167	100.474	-0.269061
7.15333	100.491	-0.269066
7.15500	100.507	-0.269068
7.15667	100.525	-0.269073
7.15833	100.541	-0.269080
7.16000	100.557	-0.269083
7.16167	100.574	-0.269084
7.16333	100.591	-0.269086
7.16500	100.607	-0.269088
7.16667	100.624	-0.269087
7.16833	100.641	-0.269089
7.17000	100.658	-0.269090
7.17167	100.674	-0.269092
7.17333	100.692	-0.269091
7.17500	100.709	-0.269097
7.17667	100.725	-0.269108
7.17833	100.741	-0.269119
7.18000	100.758	-0.269133
7.18167	100.775	-0.269150
7.18333	100.791	-0.269166
7.18500	100.809	-0.269183
7.18667	100.825	-0.269195
7.18833	100.842	-0.269199
7.19000	100.858	-0.269202
7.19167	100.875	-0.269199
7.19333	100.892	-0.269196
7.19500	100.908	-0.269195
7.19667	100.925	-0.269198
7.19833	100.941	-0.269203
7.20000	100.958	-0.269213
7.20167	100.975	-0.269229
7.20333	100.991	-0.269251
7.20500	101.008	-0.269264
7.20667	101.025	-0.269273
7.20833	101.042	-0.269285
7.21000	101.059	-0.269299
7.21167	101.075	-0.269311
7.21333	101.092	-0.269318
7.21500	101.108	-0.269322
7.21667	101.125	-0.269324
7.21833	101.142	-0.269331
7.22000	101.159	-0.269342
7.22167	101.175	-0.269353
7.22333	101.192	-0.269357
7.22500	101.208	-0.269358
7.22667	101.225	-0.269359
7.22833	101.242	-0.269364
7.23000	101.259	-0.269371
7.23167	101.274	-0.269375
7.23333	101.293	-0.269375
7.23500	101.308	-0.269374
7.23667	101.326	-0.269377
7.23833	101.342	-0.269383
7.24000	101.359	-0.269391
7.24167	101.376	-0.269402
7.24333	101.393	-0.269413
7.24500	101.408	-0.269423
7.24667	101.425	-0.269434
7.24833	101.442	-0.269440
7.25000	101.459	-0.269443
7.25167	101.475	-0.269442
7.25333	101.492	-0.269440
7.25500	101.509	-0.269436
7.25667	101.526	-0.269432
7.25833	101.542	-0.269430
7.26000	101.559	-0.269435
7.26167	101.576	-0.269447
7.26333	101.593	-0.269461
7.26500	101.609	-0.269503
7.26667	101.625	-0.269550
7.26833	101.642	-0.269580
7.27000	101.659	-0.269600
7.27167	101.675	-0.269617
7.27333	101.693	-0.269633
7.27500	101.708	-0.269648
7.27667	101.726	-0.269659
7.27833	101.743	-0.269666
7.28000	101.759	-0.269669
7.28167	101.776	-0.269671
7.28333	101.792	-0.269677
7.28500	101.809	-0.269684
7.28667	101.826	-0.269694
7.28833	101.842	-0.269701
7.29000	101.860	-0.269704
7.29167	101.876	-0.269707
7.29333	101.892	-0.269712
7.29500	101.909	-0.269718
7.29667	101.926	-0.269725
7.29833	101.943	-0.269729
7.30000	101.959	-0.269728
7.30167	101.976	-0.269727
7.30333	101.993	-0.269725
7.30500	102.009	-0.269723
7.30667	102.025	-0.269723
7.30833	102.042	-0.269723
7.31000	102.060	-0.269722
7.31167	102.078	-0.269727
7.31333	102.093	-0.269730
7.31500	102.109	-0.269737
7.31667	102.126	-0.269744
7.31833	102.142	-0.269748
7.32000	102.159	-0.269748
7.32167	102.176	-0.269746
7.32333	102.193	-0.269742
7.32500	102.210	-0.269738
7.32667	102.226	-0.269733
7.32833	102.243	-0.269727
7.33000	102.259	-0.269724
7.33167	102.276	-0.269720
7.33333	102.292	-0.269720
7.33500	102.309	-0.269724
7.33667	102.326	-0.269731
7.33833	102.342	-0.269739
7.34000	102.359	-0.269753
7.34167	102.376	-0.269767
7.34333	102.392	-0.269800
7.34500	102.410	-0.269830
7.34667	102.426	-0.269844
7.34833	102.442	-0.269855
7.35000	102.460	-0.269862
7.35167	102.476	-0.269867
7.35333	102.493	-0.269869
7.35500	102.509	-0.269868
7.35667	102.526	-0.269866
7.35833	102.543	-0.269865
7.36000	102.560	-0.269862
7.36167	102.576	-0.269864
7.36333	102.592	-0.269864
7.36500	102.609	-0.269864
7.36667	102.626	-0.269866
7.36833	102.643	-0.269863
7.37000	102.660	-0.269864
7.37167	102.676	-0.269865
7.37333	102.693	-0.269865
7.37500	102.709	-0.269866
7.37667	102.726	-0.269864
7.37833	102.743	-0.269862
7.38000	102.759	-0.269865
7.38167	102.776	-0.269869
7.38333	102.793	-0.269875
7.38500	102.810	-0.269881
7.38667	102.827	-0.269884
7.38833	102.843	-0.269889
7.39000	102.859	-0.269897
7.39167	102.876	-0.269905
7.39333	102.893	-0.269911
7.39500	102.910	-0.269911
7.39667	102.927	-0.269913
7.39833	102.943	-0.269917
7.40000	102.960	-0.269918
7.40167	102.977	-0.269920
7.40333	102.993	-0.269925
7.40500	103.009	-0.269931
7.40667	103.026	-0.269939
7.40833	103.043	-0.269951
7.41000	103.060	-0.269965
7.41167	103.076	-0.269979
7.41333	103.093	-0.269992
7.41500	103.110	-0.270006
7.41667	103.127	-0.270016
7.41833	103.144	-0.270026
7.42000	103.160	-0.270034
7.42167	103.177	-0.270041
7.42333	103.194	-0.270043
7.42500	103.210	-0.270043
7.42667	103.227	-0.270047
7.42833	103.243	-0.270053
7.43000	103.260	-0.270062
7.43167	103.277	-0.270073
7.43333	103.295	-0.270079
7.43500	103.311	-0.270082
7.43667	103.328	-0.270084
7.43833	103.343	-0.270089
7.44000	103.361	-0.270093
7.44167	103.377	-0.270095
7.44333	103.394	-0.270098
7.44500	103.410	-0.270106
7.44667	103.427	-0.270118
7.44833	103.444	-0.270137
7.45000	103.460	-0.270154
7.45167	103.477	-0.270171
7.45333	103.495	-0.270182
7.45500	103.511	-0.270190
7.45667	103.526	-0.270191
7.45833	103.544	-0.270182
7.46000	103.560	-0.270149
7.46167	103.577	-0.270134
7.46333	103.594	-0.270129
7.46500	103.610	-0.270134
7.46667	103.627	-0.270145
7.46833	103.643	-0.270158
7.47000	103.660	-0.270172
7.47167	103.676	-0.270183
7.47333	103.693	-0.270193
7.47500	103.711	-0.270199
7.47667	103.727	-0.270202
7.47833	103.743	-0.270201
7.48000	103.760	-0.270202
7.48167	103.777	-0.270209
7.48333	103.793	-0.270222
7.48500	103.810	-0.270236
7.48667	103.827	-0.270244
7.48833	103.843	-0.270250
7.49000	103.860	-0.270255
7.49167	103.877	-0.270258
7.49333	103.894	-0.270261
7.49500	103.911	-0.270265
7.49667	103.927	-0.270270
7.49833	103.945	-0.270279
7.50000	103.960	-0.270291
7.50167	103.977	-0.270304
7.50333	103.993	-0.270316
7.50500	104.010	-0.270325
7.50667	104.028	-0.270328
7.50833	104.044	-0.270333
7.51000	104.061	-0.270334
7.51167	104.077	-0.270338
7.51333	104.094	-0.270342
7.51500	104.110	-0.270343
7.51667	104.127	-0.270342
7.51833	104.145	-0.270340
7.52000	104.161	-0.270336
7.52167	104.178	-0.270325
7.52333	104.193	-0.270320
7.52500	104.211	-0.270318
7.52667	104.227	-0.270316
7.52833	104.243	-0.270318
7.53000	104.260	-0.270324
7.53167	104.278	-0.270338
7.53333	104.294	-0.270350
7.53500	104.310	-0.270363
7.53667	104.327	-0.270375
7.53833	104.344	-0.270385
7.54000	104.361	-0.270390
7.54167	104.377	-0.270396
7.54333	104.393	-0.270402
7.54500	104.411	-0.270402
7.54667	104.426	-0.270399
7.54833	104.442	-0.270394
7.55000	104.461	-0.270394
7.55167	104.477	-0.270397
7.55333	104.493	-0.270401
7.55500	104.511	-0.270409
7.55667	104.528	-0.270417
7.55833	104.544	-0.270422
7.56000	104.560	-0.270426
7.56167	104.577	-0.270427
7.56333	104.593	-0.270426
7.56500	104.611	-0.270427
7.56667	104.627	-0.270430
7.56833	104.642	-0.270434
7.57000	104.660	-0.270445
7.57167	104.676	-0.270458
7.57333	104.693	-0.270477
7.57500	104.710	-0.270497
7.57667	104.726	-0.270513
7.57833	104.743	-0.270527
7.58000	104.761	-0.270537
7.58167	104.777	-0.270545
7.58333	104.794	-0.270554
7.58500	104.810	-0.270558
7.58667	104.827	-0.270558
7.58833	104.843	-0.270558
7.59000	104.860	-0.270558
7.59167	104.877	-0.270557
7.59333	104.893	-0.270561
7.59500	104.910	-0.270564
7.59667	104.926	-0.270566
7.59833	104.943	-0.270573
7.60000	104.960	-0.270582
7.60167	104.977	-0.270597
7.60333	104.992	-0.270608
7.60500	105.010	-0.270615
7.60667	105.027	-0.270614
7.60833	105.043	-0.270612
7.61000	105.060	-0.270611
7.61167	105.076	-0.270610
7.61333	105.092	-0.270608
7.61500	105.110	-0.270604
7.61667	105.126	-0.270603
7.61833	105.143	-0.270602
7.62000	105.160	-0.270602
7.62167	105.177	-0.270607
7.62333	105.194	-0.270614
7.62500	105.211	-0.270625
7.62667	105.227	-0.270638
7.62833	105.243	-0.270654
7.63000	105.260	-0.270675
7.63167	105.277	-0.270698
7.63333	105.293	-0.270725
7.63500	105.310	-0.270742
7.63667	105.327	-0.270756
7.63833	105.343	-0.270765
7.64000	105.360	-0.270774
7.64167	105.378	-0.270782
7.64333	105.393	-0.270790
7.64500	105.411	-0.270801
7.64667	105.427	-0.270814
7.64833	105.444	-0.270832
7.65000	105.461	-0.270851
7.65167	105.477	-0.270870
7.65333	105.495	-0.270885
7.65500	105.511	-0.270895
7.65667	105.527	-0.270899
7.65833	105.544	-0.270898
7.66000	105.560	-0.270894
7.66167	105.577	-0.270891
7.66333	105.594	-0.270888
7.66500	105.611	-0.270891
7.66667	105.628	-0.270899
7.66833	105.645	-0.270911
7.67000	105.661	-0.270923
7.67167	105.678	-0.270935
7.67333	105.694	-0.270947
7.67500	105.712	-0.270952
7.67667	105.728	-0.270951
7.67833	105.744	-0.270949
7.68000	105.761	-0.270947
7.68167	105.778	-0.270946
7.68333	105.794	-0.270949
7.68500	105.810	-0.270951
7.68667	105.828	-0.270955
7.68833	105.844	-0.270962
7.69000	105.861	-0.270972
7.69167	105.878	-0.270985
7.69333	105.894	-0.270998
7.69500	105.911	-0.271013
7.69667	105.927	-0.271029
7.69833	105.945	-0.271043
7.70000	105.961	-0.271058
7.70167	105.978	-0.271065
7.70333	105.995	-0.271070
7.70500	106.012	-0.271070
7.70667	106.028	-0.271071
7.70833	106.045	-0.271069
7.71000	106.061	-0.271067
7.71167	106.079	-0.271068
7.71333	106.096	-0.271070
7.71500	106.112	-0.271076
7.71667	106.128	-0.271086
7.71833	106.145	-0.271104
7.72000	106.163	-0.271118
7.72167	106.178	-0.271133
7.72333	106.194	-0.271147
7.72500	106.212	-0.271159
7.72667	106.228	-0.271172
7.72833	106.245	-0.271181
7.73000	106.261	-0.271188
7.73167	106.278	-0.271191
7.73333	106.295	-0.271191
7.73500	106.312	-0.271190
7.73667	106.328	-0.271190
7.73833	106.345	-0.271191
7.74000	106.362	-0.271193
7.74167	106.379	-0.271196
7.74333	106.394	-0.271198
7.74500	106.412	-0.271202
7.74667	106.428	-0.271207
7.74833	106.445	-0.271208
7.75000	106.461	-0.271207
7.75167	106.479	-0.271205
7.75333	106.495	-0.271206
7.75500	106.512	-0.271208
7.75667	106.528	-0.271210
7.75833	106.545	-0.271216
7.76000	106.562	-0.271221
7.76167	106.579	-0.271227
7.76333	106.596	-0.271235
7.76500	106.612	-0.271245
7.76667	106.629	-0.271253
7.76833	106.646	-0.271257
7.77000	106.662	-0.271254
7.77167	106.679	-0.271254
7.77333	106.696	-0.271260
7.77500	106.712	-0.271271
7.77667	106.729	-0.271285
7.77833	106.745	-0.271298
7.78000	106.761	-0.271310
7.78167	106.779	-0.271333
7.78333	106.795	-0.271365
7.78500	106.811	-0.271402
7.78667	106.828	-0.271419
7.78833	106.844	-0.271431
7.79000	106.861	-0.271441
7.79167	106.878	-0.271448
7.79333	106.896	-0.271461
7.79500	106.913	-0.271474
7.79667	106.929	-0.271478
7.79833	106.945	-0.271477
7.80000	106.962	-0.271479
7.80167	106.979	-0.271481
7.80333	106.996	-0.271487
7.80500	107.012	-0.271492
7.80667	107.029	-0.271496
7.80833	107.045	-0.271493
7.81000	107.061	-0.271490
7.81167	107.078	-0.271489
7.81333	107.095	-0.271493
7.81500	107.112	-0.271492
7.81667	107.128	-0.271490
7.81833	107.146	-0.271486
7.82000	107.163	-0.271485
7.82167	107.179	-0.271488
7.82333	107.195	-0.271491
7.82500	107.212	-0.271497
7.82667	107.230	-0.271506
7.82833	107.247	-0.271518
7.83000	107.262	-0.271531
7.83167	107.279	-0.271554
7.83333	107.295	-0.271571
7.83500	107.313	-0.271587
7.83667	107.329	-0.271601
7.83833	107.345	-0.271613
7.84000	107.362	-0.271622
7.84167	107.378	-0.271628
7.84333	107.395	-0.271629
7.84500	107.412	-0.271629
7.84667	107.429	-0.271628
7.84833	107.445	-0.271625
7.85000	107.462	-0.271620
7.85167	107.478	-0.271616
7.85333	107.496	-0.271611
7.85500	107.513	-0.271610
7.85667	107.528	-0.271613
7.85833	107.546	-0.271616
7.86000	107.562	-0.271619
7.86167	107.580	-0.271625
7.86333	107.596	-0.271630
7.86500	107.613	-0.271633
7.86667	107.629	-0.271635
7.86833	107.646	-0.271637
7.87000	107.663	-0.271642
7.87167	107.679	-0.271648
7.87333	107.696	-0.271656
7.87500	107.713	-0.271663
7.87667	107.729	-0.271672
7.87833	107.746	-0.271681
7.88000	107.762	-0.271691
7.88167	107.779	-0.271697
7.88333	107.796	-0.271701
7.88500	107.813	-0.271705
7.88667	107.829	-0.271711
7.88833	107.846	-0.271716
7.89000	107.862	-0.271724
7.89167	107.881	-0.271735
7.89333	107.896	-0.271745
7.89500	107.911	-0.271756
7.89667	107.930	-0.271768
7.89833	107.946	-0.271782
7.90000	107.962	-0.271791
7.90167	107.979	-0.271802
7.90333	107.997	-0.271809
7.90500	108.011	-0.271815
7.90667	108.029	-0.271819
7.90833	108.045	-0.271823
7.91000	108.063	-0.271825
7.91167	108.079	-0.271824
7.91333	108.097	-0.271822
7.91500	108.113	-0.271824
7.91667	108.130	-0.271827
7.91833	108.146	-0.271833
7.92000	108.163	-0.271841
7.92167	108.180	-0.271849
7.92333	108.196	-0.271858
7.92500	108.213	-0.271862
7.92667	108.230	-0.271867
7.92833	108.247	-0.271869
7.93000	108.263	-0.271871
7.93167	108.280	-0.271868
7.93333	108.297	-0.271863
7.93500	108.313	-0.271858
7.93667	108.330	-0.271851
7.93833	108.346	-0.271849
7.94000	108.363	-0.271849
7.94167	108.379	-0.271851
7.94333	108.396	-0.271853
7.94500	108.412	-0.271858
7.94667	108.430	-0.271865
7.94833	108.446	-0.271870
7.95000	108.464	-0.271879
7.95167	108.480	-0.271885
7.95333	108.496	-0.271894
7.95500	108.513	-0.271898
7.95667	108.529	-0.271905
7.95833	108.546	-0.271910
7.96000	108.563	-0.271916
7.96167	108.579	-0.271921
7.96333	108.595	-0.271931
7.96500	108.613	-0.271946
7.96667	108.630	-0.271961
7.96833	108.647	-0.271974
7.97000	108.663	-0.271987
7.97167	108.681	-0.272001
7.97333	108.696	-0.272013
7.97500	108.714	-0.272020
7.97667	108.730	-0.272025
7.97833	108.746	-0.272025
7.98000	108.762	-0.272019
7.98167	108.779	-0.272014
7.98333	108.797	-0.272014
7.98500	108.815	-0.272017
7.98667	108.830	-0.272018
7.98833	108.847	-0.272022
7.99000	108.863	-0.272030
7.99167	108.881	-0.272042
7.99333	108.896	-0.272053
7.99500	108.913	-0.272065
7.99667	108.930	-0.272078
7.99833	108.946	-0.272087
8.00000	108.962	-0.272096
8.00167	108.979	-0.272106
8.00333	108.996	-0.272114
8.00500	109.012	-0.272120
8.00667	109.029	-0.272126
8.00833	109.046	-0.272136
8.01000	109.063	-0.272148
8.01167	109.079	-0.272159
8.01333	109.096	-0.272165
8.01500	109.113	-0.272168
8.01667	109.129	-0.272168
8.01833	109.146	-0.272173
8.02000	109.163	-0.272178
8.02167	109.180	-0.272178
8.02333	109.196	-0.272176
8.02500	109.213	-0.272177
8.02667	109.230	-0.272183
8.02833	109.246	-0.272193
8.03000	109.263	-0.272205
8.03167	109.280	-0.272214
8.03333	109.297	-0.272222
8.03500	109.313	-0.272230
8.03667	109.329	-0.272236
8.03833	109.346	-0.272240
8.04000	109.363	-0.272244
8.04167	109.380	-0.272249
8.04333	109.397	-0.272255
8.04500	109.413	-0.272260
8.04667	109.430	-0.272267
8.04833	109.446	-0.272274
8.05000	109.463	-0.272280
8.05167	109.480	-0.272285
8.05333	109.496	-0.272290
8.05500	109.514	-0.272291
8.05667	109.530	-0.272287
8.05833	109.547	-0.272284
8.06000	109.563	-0.272288
8.06167	109.580	-0.272291
8.06333	109.596	-0.272298
8.06500	109.614	-0.272305
8.06667	109.631	-0.272313
8.06833	109.647	-0.272318
8.07000	109.664	-0.272325
8.07167	109.680	-0.272334
8.07333	109.697	-0.272345
8.07500	109.713	-0.272353
8.07667	109.731	-0.272358
8.07833	109.747	-0.272368
8.08000	109.763	-0.272374
8.08167	109.779	-0.272382
8.08333	109.797	-0.272391
8.08500	109.813	-0.272402
8.08667	109.830	-0.272408
8.08833	109.847	-0.272415
8.09000	109.864	-0.272422
8.09167	109.880	-0.272423
8.09333	109.898	-0.272420
8.09500	109.914	-0.272413
8.09667	109.930	-0.272405
8.09833	109.947	-0.272399
8.10000	109.963	-0.272397
8.10167	109.980	-0.272397
8.10333	109.996	-0.272405
8.10500	110.014	-0.272420
8.10667	110.031	-0.272445
8.10833	110.047	-0.272477
8.11000	110.063	-0.272491
8.11167	110.080	-0.272504
8.11333	110.097	-0.272516
8.11500	110.113	-0.272524
8.11667	110.129	-0.272530
8.11833	110.146	-0.272535
8.12000	110.162	-0.272538
8.12167	110.180	-0.272541
8.12333	110.196	-0.272543
8.12500	110.213	-0.272548
8.12667	110.230	-0.272551
8.12833	110.248	-0.272548
8.13000	110.264	-0.272547
8.13167	110.281	-0.272548
8.13333	110.296	-0.272551
8.13500	110.314	-0.272555
8.13667	110.331	-0.272563
8.13833	110.346	-0.272571
8.14000	110.363	-0.272580
8.14167	110.380	-0.272585
8.14333	110.397	-0.272589
8.14500	110.413	-0.272592
8.14667	110.430	-0.272597
8.14833	110.447	-0.272605
8.15000	110.464	-0.272614
8.15167	110.480	-0.272624
8.15333	110.497	-0.272631
8.15500	110.514	-0.272643
8.15667	110.530	-0.272655
8.15833	110.547	-0.272663
8.16000	110.564	-0.272673
8.16167	110.579	-0.272681
8.16333	110.597	-0.272686
8.16500	110.614	-0.272693
8.16667	110.630	-0.272702
8.16833	110.647	-0.272710
8.17000	110.663	-0.272722
8.17167	110.679	-0.272733
8.17333	110.697	-0.272745
8.17500	110.713	-0.272755
8.17667	110.731	-0.272767
8.17833	110.747	-0.272781
8.18000	110.763	-0.272794
8.18167	110.781	-0.272805
8.18333	110.797	-0.272814
8.18500	110.814	-0.272825
8.18667	110.831	-0.272833
8.18833	110.847	-0.272843
8.19000	110.864	-0.272848
8.19167	110.881	-0.272854
8.19333	110.897	-0.272860
8.19500	110.915	-0.272867
8.19667	110.931	-0.272872
8.19833	110.947	-0.272880
8.20000	110.965	-0.272888
8.20167	110.981	-0.272899
8.20333	110.998	-0.272914
8.20500	111.014	-0.272930
8.20667	111.031	-0.272946
8.20833	111.049	-0.272961
8.21000	111.064	-0.272976
8.21167	111.081	-0.272988
8.21333	111.097	-0.273001
8.21500	111.114	-0.273010
8.21667	111.131	-0.273013
8.21833	111.147	-0.273012
8.22000	111.164	-0.273012
8.22167	111.180	-0.273013
8.22333	111.197	-0.273018
8.22500	111.214	-0.273025
8.22667	111.230	-0.273034
8.22833	111.247	-0.273045
8.23000	111.264	-0.273056
8.23167	111.281	-0.273068
8.23333	111.298	-0.273081
8.23500	111.314	-0.273092
8.23667	111.332	-0.273101
8.23833	111.348	-0.273108
8.24000	111.364	-0.273115
8.24167	111.381	-0.273123
8.24333	111.398	-0.273129
8.24500	111.414	-0.273132
8.24667	111.431	-0.273135
8.24833	111.449	-0.273140
8.25000	111.465	-0.273144
8.25167	111.482	-0.273148
8.25333	111.498	-0.273150
8.25500	111.515	-0.273155
8.25667	111.531	-0.273162
8.25833	111.548	-0.273166
8.26000	111.565	-0.273166
8.26167	111.581	-0.273167
8.26333	111.598	-0.273171
8.26500	111.616	-0.273177
8.26667	111.632	-0.273187
8.26833	111.648	-0.273199
8.27000	111.665	-0.273207
8.27167	111.682	-0.273212
8.27333	111.698	-0.273216
8.27500	111.715	-0.273223
8.27667	111.732	-0.273229
8.27833	111.748	-0.273229
8.28000	111.765	-0.273234
8.28167	111.782	-0.273244
8.28333	111.798	-0.273257
8.28500	111.815	-0.273271
8.28667	111.832	-0.273284
8.28833	111.849	-0.273295
8.29000	111.866	-0.273307
8.29167	111.882	-0.273313
8.29333	111.899	-0.273314
8.29500	111.916	-0.273314
8.29667	111.932	-0.273312
8.29833	111.948	-0.273310
8.30000	111.965	-0.273311
8.30167	111.982	-0.273316
8.30333	111.998	-0.273320
8.30500	112.016	-0.273324
8.30667	112.032	-0.273332
8.30833	112.048	-0.273342
8.31000	112.064	-0.273352
8.31167	112.082	-0.273360
8.31333	112.099	-0.273367
8.31500	112.115	-0.273375
8.31667	112.131	-0.273388
8.31833	112.149	-0.273405
8.32000	112.165	-0.273419
8.32167	112.182	-0.273430
8.32333	112.199	-0.273436
8.32500	112.215	-0.273442
8.32667	112.233	-0.273447
8.32833	112.249	-0.273455
8.33000	112.265	-0.273463
8.33167	112.282	-0.273469
8.33333	112.299	-0.273473
8.33500	112.316	-0.273480
8.33667	112.332	-0.273491
8.33833	112.349	-0.273499
8.34000	112.365	-0.273505
8.34167	112.382	-0.273503
8.34333	112.399	-0.273495
8.34500	112.414	-0.273482
8.34667	112.432	-0.273469
8.34833	112.449	-0.273469
8.35000	112.465	-0.273476
8.35167	112.482	-0.273485
8.35333	112.499	-0.273498
8.35500	112.517	-0.273512
8.35667	112.533	-0.273527
8.35833	112.549	-0.273541
8.36000	112.565	-0.273555
8.36167	112.582	-0.273565
8.36333	112.599	-0.273571
8.36500	112.616	-0.273570
8.36667	112.632	-0.273569
8.36833	112.649	-0.273572
8.37000	112.666	-0.273579
8.37167	112.682	-0.273589
8.37333	112.699	-0.273597
8.37500	112.715	-0.273603
8.37667	112.732	-0.273612
8.37833	112.749	-0.273619
8.38000	112.766	-0.273627
8.38167	112.782	-0.273637
8.38333	112.797	-0.273641
8.38500	112.815	-0.273644
8.38667	112.832	-0.273646
8.38833	112.849	-0.273651
8.39000	112.865	-0.273659
8.39167	112.882	-0.273667
8.39333	112.900	-0.273674
8.39500	112.916	-0.273686
8.39667	112.932	-0.273699
8.39833	112.949	-0.273710
8.40000	112.965	-0.273722
8.40167	112.982	-0.273731
8.40333	112.999	-0.273741
8.40500	113.015	-0.273748
8.40667	113.033	-0.273747
8.40833	113.048	-0.273746
8.41000	113.065	-0.273746
8.41167	113.082	-0.273751
8.41333	113.098	-0.273760
8.41500	113.114	-0.273773
8.41667	113.132	-0.273783
8.41833	113.149	-0.273791
8.42000	113.166	-0.273803
8.42167	113.182	-0.273819
8.42333	113.199	-0.273833
8.42500	113.215	-0.273840
8.42667	113.232	-0.273843
8.42833	113.249	-0.273844
8.43000	113.266	-0.273848
8.43167	113.282	-0.273859
8.43333	113.299	-0.273872
8.43500	113.315	-0.273881
8.43667	113.331	-0.273884
8.43833	113.348	-0.273887
8.44000	113.366	-0.273894
8.44167	113.381	-0.273901
8.44333	113.399	-0.273912
8.44500	113.416	-0.273920
8.44667	113.432	-0.273923
8.44833	113.450	-0.273929
8.45000	113.466	-0.273939
8.45167	113.483	-0.273948
8.45333	113.499	-0.273958
8.45500	113.517	-0.273966
8.45667	113.533	-0.273967
8.45833	113.549	-0.273970
8.46000	113.566	-0.273974
8.46167	113.582	-0.273978
8.46333	113.599	-0.273981
8.46500	113.615	-0.273981
8.46667	113.633	-0.273983
8.46833	113.650	-0.273988
8.47000	113.666	-0.273993
8.47167	113.683	-0.273999
8.47333	113.699	-0.274005
8.47500	113.716	-0.274009
8.47667	113.733	-0.274016
8.47833	113.749	-0.274025
8.48000	113.766	-0.274036
8.48167	113.783	-0.274049
8.48333	113.799	-0.274064
8.48500	113.815	-0.274082
8.48667	113.833	-0.274099
8.48833	113.848	-0.274112
8.49000	113.866	-0.274123
8.49167	113.883	-0.274133
8.49333	113.900	-0.274138
8.49500	113.915	-0.274141
8.49667	113.932	-0.274143
8.49833	113.949	-0.274141
8.50000	113.966	-0.274139
8.50167	113.982	-0.274135
8.50333	113.999	-0.274136
8.50500	114.015	-0.274141
8.50667	114.032	-0.274145
8.50833	114.048	-0.274149
8.51000	114.065	-0.274155
8.51167	114.082	-0.274168
8.51333	114.098	-0.274185
8.51500	114.115	-0.274212
8.51667	114.132	-0.274233
8.51833	114.149	-0.274246
8.52000	114.166	-0.274256
8.52167	114.182	-0.274267
8.52333	114.199	-0.274279
8.52500	114.216	-0.274288
8.52667	114.232	-0.274295
8.52833	114.249	-0.274300
8.53000	114.265	-0.274304
8.53167	114.282	-0.274306
8.53333	114.300	-0.274310
8.53500	114.316	-0.274316
8.53667	114.333	-0.274320
8.53833	114.349	-0.274321
8.54000	114.366	-0.274322
8.54167	114.382	-0.274328
8.54333	114.400	-0.274336
8.54500	114.416	-0.274343
8.54667	114.432	-0.274347
8.54833	114.449	-0.274351
8.55000	114.466	-0.274356
8.55167	114.483	-0.274359
8.55333	114.499	-0.274366
8.55500	114.516	-0.274373
8.55667	114.532	-0.274381
8.55833	114.549	-0.274389
8.56000	114.566	-0.274398
8.56167	114.583	-0.274413
8.56333	114.599	-0.274430
8.56500	114.616	-0.274446
8.56667	114.632	-0.274462
8.56833	114.649	-0.274471
8.57000	114.666	-0.274473
8.57167	114.683	-0.274476
8.57333	114.699	-0.274479
8.57500	114.716	-0.274484
8.57667	114.732	-0.274488
8.57833	114.750	-0.274491
8.58000	114.766	-0.274497
8.58167	114.782	-0.274503
8.58333	114.800	-0.274510
8.58500	114.816	-0.274517
8.58667	114.832	-0.274523
8.58833	114.849	-0.274526
8.59000	114.866	-0.274527
8.59167	114.882	-0.274526
8.59333	114.900	-0.274528
8.59500	114.916	-0.274531
8.59667	114.933	-0.274541
8.59833	114.949	-0.274556
8.60000	114.966	-0.274572
8.60167	114.983	-0.274593
8.60333	115.000	-0.274614
8.60500	115.016	-0.274649
8.60667	115.033	-0.274685
8.60833	115.049	-0.274704
8.61000	115.065	-0.274720
8.61167	115.082	-0.274728
8.61333	115.100	-0.274734
8.61500	115.116	-0.274739
8.61667	115.133	-0.274744
8.61833	115.149	-0.274748
8.62000	115.166	-0.274750
8.62167	115.183	-0.274750
8.62333	115.199	-0.274754
8.62500	115.215	-0.274759
8.62667	115.233	-0.274762
8.62833	115.250	-0.274765
8.63000	115.266	-0.274761
8.63167	115.283	-0.274758
8.63333	115.300	-0.274757
8.63500	115.318	-0.274754
8.63667	115.333	-0.274747
8.63833	115.350	-0.274743
8.64000	115.366	-0.274747
8.64167	115.383	-0.274756
8.64333	115.400	-0.274766
8.64500	115.417	-0.274775
8.64667	115.434	-0.274787
8.64833	115.450	-0.274799
8.65000	115.466	-0.274813
8.65167	115.483	-0.274827
8.65333	115.500	-0.274837
8.65500	115.517	-0.274845
8.65667	115.533	-0.274854
8.65833	115.550	-0.274868
8.66000	115.566	-0.274884
8.66167	115.583	-0.274896
8.66333	115.600	-0.274905
8.66500	115.616	-0.274912
8.66667	115.633	-0.274913
8.66833	115.650	-0.274915
8.67000	115.666	-0.274917
8.67167	115.682	-0.274917
8.67333	115.699	-0.274922
8.67500	115.716	-0.274926
8.67667	115.732	-0.274931
8.67833	115.750	-0.274942
8.68000	115.766	-0.274950
8.68167	115.782	-0.274956
8.68333	115.799	-0.274961
8.68500	115.816	-0.274965
8.68667	115.834	-0.274969
8.68833	115.850	-0.274971
8.69000	115.867	-0.274973
8.69167	115.884	-0.274977
8.69333	115.900	-0.274979
8.69500	115.917	-0.274987
8.69667	115.933	-0.274998
8.69833	115.950	-0.275010
8.70000	115.966	-0.275019
8.70167	115.982	-0.275032
8.70333	115.999	-0.275044
8.70500	116.016	-0.275057
8.70667	116.033	-0.275068
8.70833	116.050	-0.275077
8.71000	116.067	-0.275083
8.71167	116.083	-0.275086
8.71333	116.100	-0.275091
8.71500	116.116	-0.275098
8.71667	116.133	-0.275107
8.71833	116.150	-0.275114
8.72000	116.166	-0.275123
8.72167	116.182	-0.275132
8.72333	116.199	-0.275140
8.72500	116.216	-0.275150
8.72667	116.233	-0.275159
8.72833	116.249	-0.275169
8.73000	116.267	-0.275179
8.73167	116.284	-0.275193
8.73333	116.300	-0.275205
8.73500	116.317	-0.275217
8.73667	116.334	-0.275230
8.73833	116.351	-0.275241
8.74000	116.367	-0.275249
8.74167	116.383	-0.275252
8.74333	116.399	-0.275251
8.74500	116.416	-0.275254
8.74667	116.433	-0.275256
8.74833	116.450	-0.275255
8.75000	116.467	-0.275259
8.75167	116.483	-0.275263
8.75333	116.500	-0.275268
8.75500	116.517	-0.275280
8.75667	116.533	-0.275293
8.75833	116.551	-0.275309
8.76000	116.567	-0.275326
8.76167	116.583	-0.275337
8.76333	116.601	-0.275349
8.76500	116.617	-0.275358
8.76667	116.633	-0.275361
8.76833	116.650	-0.275362
8.77000	116.667	-0.275366
8.77167	116.683	-0.275371
8.77333	116.700	-0.275380
8.77500	116.716	-0.275389
8.77667	116.734	-0.275402
8.77833	116.750	-0.275425
8.78000	116.767	-0.275481
8.78167	116.784	-0.275512
8.78333	116.800	-0.275531
8.78500	116.817	-0.275549
8.78667	116.834	-0.275562
8.78833	116.850	-0.275570
8.79000	116.867	-0.275574
8.79167	116.884	-0.275575
8.79333	116.900	-0.275573
8.79500	116.916	-0.275569
8.79667	116.934	-0.275561
8.79833	116.950	-0.275562
8.80000	116.967	-0.275563
8.80167	116.984	-0.275568
8.80333	117.001	-0.275578
8.80500	117.017	-0.275590
8.80667	117.034	-0.275602
8.80833	117.050	-0.275614
8.81000	117.067	-0.275628
8.81167	117.084	-0.275645
8.81333	117.100	-0.275660
8.81500	117.117	-0.275672
8.81667	117.133	-0.275682
8.81833	117.151	-0.275688
8.82000	117.167	-0.275696
8.82167	117.183	-0.275700
8.82333	117.200	-0.275702
8.82500	117.217	-0.275698
8.82667	117.234	-0.275692
8.82833	117.250	-0.275689
8.83000	117.267	-0.275690
8.83167	117.283	-0.275697
8.83333	117.300	-0.275708
8.83500	117.317	-0.275721
8.83667	117.334	-0.275735
8.83833	117.350	-0.275753
8.84000	117.367	-0.275769
8.84167	117.384	-0.275787
8.84333	117.401	-0.275800
8.84500	117.417	-0.275811
8.84667	117.434	-0.275821
8.84833	117.451	-0.275828
8.85000	117.467	-0.275838
8.85167	117.483	-0.275849
8.85333	117.501	-0.275860
8.85500	117.517	-0.275869
8.85667	117.534	-0.275878
8.85833	117.551	-0.275885
8.86000	117.567	-0.275891
8.86167	117.584	-0.275900
8.86333	117.600	-0.275910
8.86500	117.617	-0.275918
8.86667	117.634	-0.275926
8.86833	117.650	-0.275938
8.87000	117.667	-0.275951
8.87167	117.685	-0.275966
8.87333	117.701	-0.275979
8.87500	117.717	-0.275992
8.87667	117.734	-0.276005
8.87833	117.751	-0.276017
8.88000	117.768	-0.276029
8.88167	117.784	-0.276039
8.88333	117.800	-0.276046
8.88500	117.818	-0.276051
8.88667	117.834	-0.276056
8.88833	117.851	-0.276064
8.89000	117.867	-0.276076
8.89167	117.885	-0.276088
8.89333	117.901	-0.276099
8.89500	117.916	-0.276107
8.89667	117.934	-0.276117
8.89833	117.951	-0.276123
8.90000	117.967	-0.276126
8.90167	117.985	-0.276131
8.90333	118.001	-0.276131
8.90500	118.017	-0.276132
8.90667	118.034	-0.276135
8.90833	118.052	-0.276144
8.91000	118.068	-0.276161
8.91167	118.085	-0.276185
8.91333	118.101	-0.276208
8.91500	118.118	-0.276247
8.91667	118.135	-0.276309
8.91833	118.152	-0.276365
8.92000	118.167	-0.276419
8.92167	118.183	-0.276438
8.92333	118.201	-0.276455
8.92500	118.217	-0.276468
8.92667	118.234	-0.276472
8.92833	118.251	-0.276472
8.93000	118.268	-0.276459
8.93167	118.284	-0.276430
8.93333	118.302	-0.276411
8.93500	118.319	-0.276408
8.93667	118.335	-0.276410
8.93833	118.351	-0.276417
8.94000	118.368	-0.276419
8.94167	118.384	-0.276425
8.94333	118.401	-0.276433
8.94500	118.417	-0.276440
8.94667	118.434	-0.276444
8.94833	118.452	-0.276449
8.95000	118.467	-0.276453
8.95167	118.484	-0.276458
8.95333	118.501	-0.276466
8.95500	118.517	-0.276476
8.95667	118.535	-0.276487
8.95833	118.551	-0.276496
8.96000	118.568	-0.276508
8.96167	118.584	-0.276519
8.96333	118.601	-0.276529
8.96500	118.617	-0.276535
8.96667	118.634	-0.276547
8.96833	118.651	-0.276559
8.97000	118.668	-0.276569
8.97167	118.684	-0.276577
8.97333	118.702	-0.276582
8.97500	118.718	-0.276587
8.97667	118.734	-0.276591
8.97833	118.751	-0.276596
8.98000	118.768	-0.276601
8.98167	118.784	-0.276607
8.98333	118.801	-0.276615
8.98500	118.816	-0.276630
8.98667	118.834	-0.276648
8.98833	118.851	-0.276666
8.99000	118.867	-0.276684
8.99167	118.884	-0.276701
8.99333	118.901	-0.276712
8.99500	118.918	-0.276719
8.99667	118.934	-0.276722
8.99833	118.951	-0.276719
9.00000	118.968	-0.276717
9.00167	118.984	-0.276719
9.00333	119.002	-0.276724
9.00500	119.018	-0.276732
9.00667	119.035	-0.276744
9.00833	119.051	-0.276755
9.01000	119.068	-0.276769
9.01167	119.085	-0.276784
9.01333	119.102	-0.276801
9.01500	119.119	-0.276815
9.01667	119.134	-0.276831
9.01833	119.150	-0.276842
9.02000	119.169	-0.276855
9.02167	119.185	-0.276872
9.02333	119.201	-0.276891
9.02500	119.218	-0.276910
9.02667	119.235	-0.276932
9.02833	119.252	-0.276953
9.03000	119.268	-0.276985
9.03167	119.286	-0.277020
9.03333	119.302	-0.277048
9.03500	119.319	-0.277071
9.03667	119.335	-0.277095
9.03833	119.352	-0.277113
9.04000	119.368	-0.277128
9.04167	119.386	-0.277137
9.04333	119.402	-0.277141
9.04500	119.419	-0.277143
9.04667	119.436	-0.277146
9.04833	119.453	-0.277153
9.05000	119.469	-0.277160
9.05167	119.485	-0.277167
9.05333	119.503	-0.277179
9.05500	119.519	-0.277195
9.05667	119.537	-0.277212
9.05833	119.552	-0.277229
9.06000	119.569	-0.277246
9.06167	119.586	-0.277261
9.06333	119.603	-0.277274
9.06500	119.618	-0.277285
9.06667	119.635	-0.277293
9.06833	119.653	-0.277302
9.07000	119.669	-0.277309
9.07167	119.685	-0.277322
9.07333	119.703	-0.277335
9.07500	119.719	-0.277344
9.07667	119.736	-0.277350
9.07833	119.752	-0.277360
9.08000	119.769	-0.277372
9.08167	119.786	-0.277383
9.08333	119.802	-0.277394
9.08500	119.819	-0.277400
9.08667	119.836	-0.277405
9.08833	119.853	-0.277410
9.09000	119.869	-0.277416
9.09167	119.885	-0.277425
9.09333	119.903	-0.277433
9.09500	119.919	-0.277438
9.09667	119.936	-0.277449
9.09833	119.952	-0.277463
9.10000	119.970	-0.277476
9.10167	119.985	-0.277487
9.10333	120.003	-0.277495
9.10500	120.019	-0.277495
9.10667	120.037	-0.277496
9.10833	120.053	-0.277497
9.11000	120.070	-0.277500
9.11167	120.087	-0.277504
9.11333	120.103	-0.277505
9.11500	120.120	-0.277512
9.11667	120.136	-0.277521
9.11833	120.153	-0.277531
9.12000	120.169	-0.277545
9.12167	120.185	-0.277560
9.12333	120.203	-0.277574
9.12500	120.220	-0.277591
9.12667	120.236	-0.277608
9.12833	120.253	-0.277629
9.13000	120.270	-0.277647
9.13167	120.286	-0.277665
9.13333	120.303	-0.277682
9.13500	120.319	-0.277695
9.13667	120.336	-0.277707
9.13833	120.353	-0.277720
9.14000	120.370	-0.277732
9.14167	120.386	-0.277745
9.14333	120.403	-0.277760
9.14500	120.419	-0.277771
9.14667	120.437	-0.277784
9.14833	120.454	-0.277794
9.15000	120.470	-0.277802
9.15167	120.486	-0.277808
9.15333	120.502	-0.277814
9.15500	120.520	-0.277821
9.15667	120.536	-0.277830
9.15833	120.552	-0.277844
9.16000	120.568	-0.277857
9.16167	120.586	-0.277875
9.16333	120.602	-0.277889
9.16500	120.620	-0.277902
9.16667	120.636	-0.277919
9.16833	120.653	-0.277935
9.17000	120.670	-0.277943
9.17167	120.687	-0.277948
9.17333	120.703	-0.277951
9.17500	120.719	-0.277951
9.17667	120.735	-0.277952
9.17833	120.752	-0.277956
9.18000	120.769	-0.277965
9.18167	120.786	-0.277975
9.18333	120.802	-0.277985
9.18500	120.818	-0.277994
9.18667	120.835	-0.278006
9.18833	120.853	-0.278019
9.19000	120.869	-0.278035
9.19167	120.886	-0.278052
9.19333	120.902	-0.278066
9.19500	120.919	-0.278077
9.19667	120.935	-0.278088
9.19833	120.952	-0.278100
9.20000	120.969	-0.278113
9.20167	120.985	-0.278124
9.20333	121.002	-0.278134
9.20500	121.018	-0.278142
9.20667	121.035	-0.278151
9.20833	121.051	-0.278161
9.21000	121.069	-0.278174
9.21167	121.085	-0.278184
9.21333	121.102	-0.278195
9.21500	121.120	-0.278207
9.21667	121.136	-0.278218
9.21833	121.153	-0.278232
9.22000	121.169	-0.278246
9.22167	121.186	-0.278259
9.22333	121.202	-0.278272
9.22500	121.219	-0.278288
9.22667	121.235	-0.278304
9.22833	121.252	-0.278321
9.23000	121.268	-0.278338
9.23167	121.285	-0.278361
9.23333	121.301	-0.278394
9.23500	121.318	-0.278417
9.23667	121.335	-0.278436
9.23833	121.353	-0.278453
9.24000	121.368	-0.278468
9.24167	121.385	-0.278481
9.24333	121.403	-0.278494
9.24500	121.420	-0.278505
9.24667	121.435	-0.278510
9.24833	121.453	-0.278514
9.25000	121.469	-0.278520
9.25167	121.486	-0.278529
9.25333	121.503	-0.278538
9.25500	121.520	-0.278550
9.25667	121.535	-0.278559
9.25833	121.553	-0.278568
9.26000	121.569	-0.278583
9.26167	121.585	-0.278597
9.26333	121.602	-0.278613
9.26500	121.619	-0.278624
9.26667	121.636	-0.278628
9.26833	121.652	-0.278636
9.27000	121.668	-0.278646
9.27167	121.686	-0.278658
9.27333	121.702	-0.278672
9.27500	121.718	-0.278690
9.27667	121.736	-0.278707
9.27833	121.753	-0.278730
9.28000	121.770	-0.278774
9.28167	121.786	-0.278797
9.28333	121.803	-0.278815
9.28500	121.819	-0.278827
9.28667	121.836	-0.278837
9.28833	121.853	-0.278848
9.29000	121.869	-0.278852
9.29167	121.886	-0.278858
9.29333	121.902	-0.278866
9.29500	121.918	-0.278876
9.29667	121.935	-0.278883
9.29833	121.952	-0.278892
9.30000	121.970	-0.278902
9.30167	121.986	-0.278914
9.30333	122.002	-0.278926
9.30500	122.018	-0.278940
9.30667	122.036	-0.278957
9.30833	122.053	-0.278974
9.31000	122.070	-0.278989
9.31167	122.086	-0.279001
9.31333	122.103	-0.279010
9.31500	122.119	-0.279018
9.31667	122.135	-0.279027
9.31833	122.151	-0.279037
9.32000	122.169	-0.279048
9.32167	122.185	-0.279064
9.32333	122.202	-0.279088
9.32500	122.219	-0.279128
9.32667	122.235	-0.279191
9.32833	122.252	-0.279247
9.33000	122.268	-0.279270
9.33167	122.285	-0.279288
9.33333	122.301	-0.279304
9.33500	122.318	-0.279322
9.33667	122.335	-0.279340
9.33833	122.352	-0.279357
9.34000	122.369	-0.279377
9.34167	122.386	-0.279397
9.34333	122.403	-0.279415
9.34500	122.419	-0.279430
9.34667	122.435	-0.279445
9.34833	122.452	-0.279458
9.35000	122.468	-0.279466
9.35167	122.486	-0.279474
9.35333	122.502	-0.279484
9.35500	122.518	-0.279497
9.35667	122.535	-0.279508
9.35833	122.552	-0.279518
9.36000	122.569	-0.279531
9.36167	122.585	-0.279548
9.36333	122.602	-0.279566
9.36500	122.618	-0.279583
9.36667	122.634	-0.279597
9.36833	122.652	-0.279607
9.37000	122.668	-0.279611
9.37167	122.685	-0.279617
9.37333	122.702	-0.279631
9.37500	122.719	-0.279646
9.37667	122.735	-0.279656
9.37833	122.752	-0.279668
9.38000	122.769	-0.279688
9.38167	122.786	-0.279713
9.38333	122.802	-0.279737
9.38500	122.819	-0.279758
9.38667	122.835	-0.279777
9.38833	122.852	-0.279795
9.39000	122.867	-0.279809
9.39167	122.885	-0.279828
9.39333	122.902	-0.279849
9.39500	122.919	-0.279868
9.39667	122.936	-0.279885
9.39833	122.951	-0.279904
9.40000	122.969	-0.279920
9.40167	122.986	-0.279934
9.40333	123.001	-0.279947
9.40500	123.019	-0.279963
9.40667	123.035	-0.279981
9.40833	123.052	-0.280000
9.41000	123.069	-0.280024
9.41167	123.086	-0.280047
9.41333	123.103	-0.280070
9.41500	123.119	-0.280096
9.41667	123.136	-0.280123
9.41833	123.153	-0.280143
9.42000	123.169	-0.280162
9.42167	123.186	-0.280177
9.42333	123.202	-0.280194
9.42500	123.219	-0.280211
9.42667	123.236	-0.280228
9.42833	123.252	-0.280243
9.43000	123.269	-0.280251
9.43167	123.285	-0.280257
9.43333	123.302	-0.280265
9.43500	123.319	-0.280275
9.43667	123.336	-0.280285
9.43833	123.352	-0.280296
9.44000	123.370	-0.280307
9.44167	123.387	-0.280323
9.44333	123.401	-0.280343
9.44500	123.420	-0.280364
9.44667	123.436	-0.280386
9.44833	123.452	-0.280417
9.45000	123.469	-0.280467
9.45167	123.485	-0.280504
9.45333	123.503	-0.280548
9.45500	123.519	-0.280571
9.45667	123.535	-0.280592
9.45833	123.553	-0.280609
9.46000	123.569	-0.280628
9.46167	123.585	-0.280651
9.46333	123.603	-0.280671
9.46500	123.619	-0.280688
9.46667	123.636	-0.280703
9.46833	123.652	-0.280723
9.47000	123.670	-0.280744
9.47167	123.687	-0.280765
9.47333	123.704	-0.280783
9.47500	123.720	-0.280804
9.47667	123.736	-0.280823
9.47833	123.752	-0.280845
9.48000	123.769	-0.280871
9.48167	123.786	-0.280898
9.48333	123.803	-0.280927
9.48500	123.819	-0.280950
9.48667	123.837	-0.280968
9.48833	123.853	-0.280982
9.49000	123.869	-0.280994
9.49167	123.887	-0.281006
9.49333	123.904	-0.281019
9.49500	123.920	-0.281034
9.49667	123.936	-0.281050
9.49833	123.953	-0.281068
9.50000	123.970	-0.281085
9.50167	123.986	-0.281106
9.50333	124.003	-0.281122
9.50500	124.019	-0.281135
9.50667	124.036	-0.281152
9.50833	124.053	-0.281167
9.51000	124.069	-0.281186
9.51167	124.086	-0.281207
9.51333	124.103	-0.281228
9.51500	124.119	-0.281250
9.51667	124.136	-0.281272
9.51833	124.153	-0.281294
9.52000	124.169	-0.281314
9.52167	124.187	-0.281333
9.52333	124.203	-0.281352
9.52500	124.220	-0.281373
9.52667	124.236	-0.281390
9.52833	124.252	-0.281409
9.53000	124.270	-0.281431
9.53167	124.286	-0.281453
9.53333	124.302	-0.281475
9.53500	124.319	-0.281492
9.53667	124.335	-0.281508
9.53833	124.352	-0.281520
9.54000	124.369	-0.281533
9.54167	124.386	-0.281546
9.54333	124.402	-0.281561
9.54500	124.419	-0.281574
9.54667	124.436	-0.281597
9.54833	124.453	-0.281630
9.55000	124.470	-0.281680
9.55167	124.485	-0.281775
9.55333	124.502	-0.281873
9.55500	124.519	-0.281940
9.55667	124.536	-0.281968
9.55833	124.552	-0.281992
9.56000	124.568	-0.282011
9.56167	124.585	-0.282027
9.56333	124.602	-0.282037
9.56500	124.618	-0.282048
9.56667	124.635	-0.282057
9.56833	124.652	-0.282065
9.57000	124.669	-0.282075
9.57167	124.685	-0.282089
9.57333	124.702	-0.282104
9.57500	124.718	-0.282123
9.57667	124.735	-0.282143
9.57833	124.752	-0.282163
9.58000	124.769	-0.282189
9.58167	124.786	-0.282218
9.58333	124.802	-0.282254
9.58500	124.819	-0.282281
9.58667	124.836	-0.282308
9.58833	124.852	-0.282332
9.59000	124.868	-0.282350
9.59167	124.885	-0.282370
9.59333	124.902	-0.282391
9.59500	124.919	-0.282413
9.59667	124.936	-0.282438
9.59833	124.954	-0.282467
9.60000	124.969	-0.282519
9.60167	124.984	-0.282602
9.60333	125.002	-0.282667
9.60500	125.019	-0.282712
9.60667	125.035	-0.282745
9.60833	125.052	-0.282770
9.61000	125.069	-0.282790
9.61167	125.086	-0.282807
9.61333	125.102	-0.282826
9.61500	125.119	-0.282849
9.61667	125.136	-0.282875
9.61833	125.153	-0.282902
9.62000	125.169	-0.282932
9.62167	125.186	-0.282963
9.62333	125.203	-0.282993
9.62500	125.220	-0.283021
9.62667	125.235	-0.283046
9.62833	125.252	-0.283069
9.63000	125.269	-0.283089
9.63167	125.286	-0.283109
9.63333	125.302	-0.283134
9.63500	125.318	-0.283165
9.63667	125.335	-0.283197
9.63833	125.352	-0.283229
9.64000	125.368	-0.283272
9.64167	125.385	-0.283305
9.64333	125.403	-0.283339
9.64500	125.420	-0.283365
9.64667	125.436	-0.283389
9.64833	125.452	-0.283409
9.65000	125.469	-0.283427
9.65167	125.486	-0.283446
9.65333	125.502	-0.283466
9.65500	125.519	-0.283483
9.65667	125.535	-0.283496
9.65833	125.552	-0.283513
9.66000	125.569	-0.283533
9.66167	125.584	-0.283555
9.66333	125.603	-0.283577
9.66500	125.618	-0.283605
9.66667	125.635	-0.283635
9.66833	125.652	-0.283705
9.67000	125.670	-0.283757
9.67167	125.685	-0.283790
9.67333	125.703	-0.283816
9.67500	125.718	-0.283841
9.67667	125.736	-0.283866
9.67833	125.752	-0.283891
9.68000	125.770	-0.283919
9.68167	125.785	-0.283946
9.68333	125.802	-0.283975
9.68500	125.819	-0.284000
9.68667	125.836	-0.284028
9.68833	125.852	-0.284050
9.69000	125.869	-0.284074
9.69167	125.885	-0.284094
9.69333	125.902	-0.284114
9.69500	125.919	-0.284139
9.69667	125.935	-0.284170
9.69833	125.952	-0.284203
9.70000	125.969	-0.284236
9.70167	125.985	-0.284268
9.70333	126.002	-0.284295
9.70500	126.019	-0.284319
9.70667	126.037	-0.284340
9.70833	126.053	-0.284364
9.71000	126.069	-0.284390
9.71167	126.085	-0.284414
9.71333	126.102	-0.284437
9.71500	126.119	-0.284469
9.71667	126.136	-0.284502
9.71833	126.152	-0.284536
9.72000	126.169	-0.284568
9.72167	126.186	-0.284601
9.72333	126.202	-0.284633
9.72500	126.219	-0.284671
9.72667	126.235	-0.284707
9.72833	126.252	-0.284740
9.73000	126.269	-0.284773
9.73167	126.285	-0.284803
9.73333	126.303	-0.284831
9.73500	126.318	-0.284862
9.73667	126.336	-0.284890
9.73833	126.353	-0.284915
9.74000	126.369	-0.284942
9.74167	126.386	-0.284970
9.74333	126.401	-0.285002
9.74500	126.419	-0.285034
9.74667	126.435	-0.285061
9.74833	126.452	-0.285089
9.75000	126.469	-0.285116
9.75167	126.485	-0.285145
9.75333	126.502	-0.285175
9.75500	126.520	-0.285209
9.75667	126.536	-0.285249
9.75833	126.552	-0.285286
9.76000	126.569	-0.285321
9.76167	126.585	-0.285361
9.76333	126.603	-0.285398
9.76500	126.620	-0.285434
9.76667	126.637	-0.285465
9.76833	126.652	-0.285495
9.77000	126.669	-0.285525
9.77167	126.687	-0.285555
9.77333	126.702	-0.285585
9.77500	126.720	-0.285620
9.77667	126.736	-0.285656
9.77833	126.752	-0.285692
9.78000	126.769	-0.285741
9.78167	126.787	-0.285786
9.78333	126.803	-0.285845
9.78500	126.819	-0.285884
9.78667	126.836	-0.285918
9.78833	126.852	-0.285950
9.79000	126.868	-0.285982
9.79167	126.885	-0.286009
9.79333	126.903	-0.286037
9.79500	126.918	-0.286066
9.79667	126.936	-0.286097
9.79833	126.952	-0.286131
9.80000	126.970	-0.286167
9.80167	126.986	-0.286205
9.80333	127.002	-0.286243
9.80500	127.019	-0.286280
9.80667	127.036	-0.286315
9.80833	127.051	-0.286349
9.81000	127.068	-0.286382
9.81167	127.085	-0.286412
9.81333	127.102	-0.286444
9.81500	127.119	-0.286478
9.81667	127.136	-0.286518
9.81833	127.152	-0.286621
9.82000	127.169	-0.286718
9.82167	127.186	-0.286779
9.82333	127.203	-0.286820
9.82500	127.218	-0.286860
9.82667	127.236	-0.286899
9.82833	127.253	-0.286935
9.83000	127.270	-0.286966
9.83167	127.286	-0.286996
9.83333	127.303	-0.287027
9.83500	127.319	-0.287062
9.83667	127.336	-0.287139
9.83833	127.352	-0.287278
9.84000	127.369	-0.287440
9.84167	127.386	-0.287511
9.84333	127.402	-0.287584
9.84500	127.419	-0.287628
9.84667	127.435	-0.287668
9.84833	127.452	-0.287706
9.85000	127.469	-0.287739
9.85167	127.485	-0.287767
9.85333	127.501	-0.287795
9.85500	127.517	-0.287828
9.85667	127.536	-0.287867
9.85833	127.552	-0.287906
9.86000	127.569	-0.287945
9.86167	127.586	-0.288008
9.86333	127.603	-0.288056
9.86500	127.618	-0.288098
9.86667	127.635	-0.288146
9.86833	127.652	-0.288184
9.87000	127.669	-0.288226
9.87167	127.685	-0.288269
9.87333	127.702	-0.288310
9.87500	127.719	-0.288350
9.87667	127.736	-0.288391
9.87833	127.752	-0.288434
9.88000	127.769	-0.288476
9.88167	127.786	-0.288520
9.88333	127.802	-0.288561
9.88500	127.819	-0.288601
9.88667	127.836	-0.288637
9.88833	127.852	-0.288678
9.89000	127.868	-0.288724
9.89167	127.885	-0.288781
9.89333	127.903	-0.288849
9.89500	127.919	-0.288910
9.89667	127.935	-0.288984
9.89833	127.952	-0.289029
9.90000	127.969	-0.289072
9.90167	127.986	-0.289115
9.90333	128.001	-0.289155
9.90500	128.018	-0.289193
9.90667	128.036	-0.289230
9.90833	128.051	-0.289267
9.91000	128.069	-0.289304
9.91167	128.084	-0.289342
9.91333	128.102	-0.289381
9.91500	128.119	-0.289424
9.91667	128.136	-0.289464
9.91833	128.151	-0.289505
9.92000	128.168	-0.289563
9.92167	128.185	-0.289653
9.92333	128.202	-0.289775
9.92500	128.218	-0.289923
9.92667	128.235	-0.290126
9.92833	128.251	-0.290255
9.93000	128.268	-0.290367
9.93167	128.285	-0.290419
9.93333	128.301	-0.290461
9.93500	128.318	-0.290501
9.93667	128.335	-0.290544
9.93833	128.351	-0.290583
9.94000	128.369	-0.290621
9.94167	128.384	-0.290658
9.94333	128.401	-0.290696
9.94500	128.418	-0.290735
9.94667	128.435	-0.290774
9.94833	128.451	-0.290814
9.95000	128.468	-0.290856
9.95167	128.484	-0.290899
9.95333	128.501	-0.290966
9.95500	128.517	-0.291117
9.95667	128.535	-0.291240
9.95833	128.552	-0.291342
9.96000	128.568	-0.291431
9.96167	128.584	-0.291489
9.96333	128.601	-0.291536
9.96500	128.618	-0.291589
9.96667	128.635	-0.291636
9.96833	128.651	-0.291691
9.97000	128.668	-0.291743
9.97167	128.684	-0.291849
9.97333	128.701	-0.292025
9.97500	128.718	-0.292182
9.97667	128.734	-0.292395
9.97833	128.751	-0.292631
9.98000	128.768	-0.292869
9.98167	128.785	-0.293085
9.98333	128.801	-0.293392
9.98500	128.817	-0.293625
9.98667	128.835	-0.293812
9.98833	128.851	-0.293945
9.99000	128.867	-0.294076
9.99167	128.884	-0.294227
9.99333	128.902	-0.294376
9.99500	128.917	-0.294485
9.99667	128.935	-0.294593
9.99833	128.952	-0.294648
10.0000	128.968	-0.294700
10.0017	128.985	-0.294744
10.0033	129.001	-0.294786
10.0050	129.018	-0.294860
10.0067	129.034	-0.294903
10.0083	129.051	-0.294984
10.0100	129.067	-0.295049
10.0117	129.085	-0.295179
10.0133	129.101	-0.295345
10.0150	129.118	-0.295514
10.0167	129.135	-0.295665
10.0183	129.150	-0.295827
10.0200	129.167	-0.295889
10.0217	129.184	-0.295932
10.0233	129.200	-0.295975
10.0250	129.217	-0.296017
10.0267	129.234	-0.296073
10.0283	129.250	-0.296144
10.0300	129.266	-0.296200
10.0317	129.283	-0.296257
10.0333	129.300	-0.296333
10.0350	129.317	-0.296454
10.0367	129.334	-0.296696
10.0383	129.349	-0.296975
10.0400	129.366	-0.297211
10.0417	129.383	-0.297456
10.0433	129.400	-0.297629
10.0450	129.416	-0.297756
10.0467	129.433	-0.297902
10.0483	129.450	-0.297995
10.0500	129.466	-0.298099
10.0517	129.484	-0.298208
10.0533	129.501	-0.298290
10.0550	129.517	-0.298330
10.0567	129.534	-0.298399
10.0583	129.550	-0.298525
10.0600	129.567	-0.298624
10.0617	129.584	-0.298745
10.0633	129.600	-0.298920
10.0650	129.617	-0.299129
10.0667	129.633	-0.299403
10.0683	129.650	-0.299581
10.0700	129.667	-0.299770
10.0717	129.683	-0.299886
10.0733	129.700	-0.300034
10.0750	129.717	-0.300267
10.0767	129.734	-0.300573
10.0783	129.750	-0.300777
10.0800	129.767	-0.300980
10.0817	129.783	-0.301226
10.0833	129.800	-0.301535
10.0850	129.817	-0.301815
10.0867	129.833	-0.302037
10.0883	129.849	-0.302200
10.0900	129.867	-0.302314
10.0917	129.884	-0.302509
10.0933	129.901	-0.302667
10.0950	129.916	-0.302851
10.0967	129.933	-0.302962
10.0983	129.950	-0.303029
10.1000	129.967	-0.303150
10.1017	129.983	-0.303345
10.1033	130.000	-0.303552
10.1050	130.015	-0.303782
10.1067	130.033	-0.303988
10.1083	130.049	-0.304238
10.1100	130.066	-0.304569
10.1117	130.082	-0.304921
10.1133	130.100	-0.305137
10.1150	130.116	-0.305284
10.1167	130.132	-0.305371
10.1183	130.150	-0.305481
10.1200	130.166	-0.305646
10.1217	130.182	-0.305821
10.1233	130.199	-0.305964
10.1250	130.215	-0.306136
10.1267	130.233	-0.306451
10.1283	130.249	-0.306999
10.1300	130.266	-0.307718
10.1317	130.282	-0.308216
10.1333	130.299	-0.308635
10.1350	130.315	-0.309025
10.1367	130.332	-0.309575
10.1383	130.349	-0.310272
10.1400	130.366	-0.310854
10.1417	130.382	-0.311288
10.1433	130.398	-0.311712
10.1450	130.416	-0.312134
10.1467	130.432	-0.312569
10.1483	130.450	-0.313022
10.1500	130.464	-0.313433
10.1517	130.482	-0.313827
10.1533	130.497	-0.314087
10.1550	130.514	-0.314356
10.1567	130.532	-0.314702
10.1583	130.548	-0.315121
10.1600	130.565	-0.315456
10.1617	130.582	-0.315960
10.1633	130.598	-0.316417
10.1650	130.614	-0.316782
10.1667	130.631	-0.317189
10.1683	130.647	-0.317580
10.1700	130.663	-0.317973
10.1717	130.682	-0.318401
10.1733	130.698	-0.318688
10.1750	130.715	-0.319030
10.1767	130.731	-0.319272
10.1783	130.747	-0.319440
10.1800	130.763	-0.319775
10.1817	130.780	-0.320221
10.1833	130.798	-0.320616
10.1850	130.813	-0.321164
10.1867	130.830	-0.321827
10.1883	130.846	-0.322602
10.1900	130.862	-0.323615
10.1917	130.880	-0.324663
10.1933	130.896	-0.325600
10.1950	130.913	-0.326237
10.1967	130.930	-0.326523
10.1983	130.946	-0.326963
10.2000	130.962	-0.327314
10.2017	130.979	-0.327486
10.2033	130.996	-0.327622
10.2050	131.012	-0.327794
10.2067	131.030	-0.328054
10.2083	131.046	-0.328427
10.2100	131.063	-0.328824
10.2117	131.080	-0.329373
10.2133	131.095	-0.330010
10.2150	131.111	-0.330638
10.2167	131.129	-0.331421
10.2183	131.145	-0.332123
10.2200	131.161	-0.332622
10.2217	131.179	-0.332991
10.2233	131.194	-0.333279
10.2250	131.211	-0.333713
10.2267	131.228	-0.334210
10.2283	131.243	-0.334785
10.2300	131.260	-0.335385
10.2317	131.277	-0.336026
10.2333	131.294	-0.336622
10.2350	131.311	-0.337592
10.2367	131.326	-0.338977
10.2383	131.344	-0.340121
10.2400	131.360	-0.341129
10.2417	131.376	-0.342040
10.2433	131.394	-0.342676
10.2450	131.410	-0.343274
10.2467	131.426	-0.344019
10.2483	131.443	-0.344804
10.2500	131.459	-0.345364
10.2517	131.476	-0.345792
10.2533	131.493	-0.346180
10.2550	131.509	-0.346767
10.2567	131.525	-0.347797
10.2583	131.541	-0.348924
10.2600	131.558	-0.350265
10.2617	131.575	-0.351592
10.2633	131.591	-0.352869
10.2650	131.608	-0.354231
10.2667	131.625	-0.355434
10.2683	131.641	-0.356453
10.2700	131.657	-0.358059
10.2717	131.673	-0.359108
10.2733	131.691	-0.359871
10.2750	131.707	-0.360835
10.2767	131.724	-0.362224
10.2783	131.741	-0.363623
10.2800	131.756	-0.365562
10.2817	131.772	-0.367086
10.2833	131.789	-0.367736
10.2850	131.806	-0.369063
10.2867	131.822	-0.370009
10.2883	131.839	-0.371081
10.2900	131.855	-0.372291
10.2917	131.872	-0.373808
10.2933	131.888	-0.375361
10.2950	131.904	-0.376994
10.2967	131.921	-0.378187
10.2983	131.937	-0.380018
10.3000	131.955	-0.381585
10.3017	131.971	-0.383389
10.3033	131.986	-0.385278
10.3050	132.004	-0.387410
10.3067	132.020	-0.389271
10.3083	132.036	-0.390878
10.3100	132.052	-0.392876
10.3117	132.068	-0.395367
10.3133	132.084	-0.397987
10.3150	132.102	-0.400496
10.3167	132.117	-0.403023
10.3183	132.134	-0.405508
10.3200	132.150	-0.407826
10.3217	132.166	-0.410078
10.3233	132.183	-0.412801
10.3250	132.199	-0.415958
10.3267	132.215	-0.418655
10.3283	132.231	-0.421448
10.3300	132.247	-0.423911
10.3317	132.265	-0.426562
10.3333	132.280	-0.429783
10.3350	132.295	-0.432999
10.3367	132.313	-0.436307
10.3383	132.328	-0.439737
10.3400	132.345	-0.442862
10.3417	132.361	-0.446110
10.3433	132.377	-0.450451
10.3450	132.392	-0.454923
10.3467	132.409	-0.459307
10.3483	132.425	-0.464410
10.3500	132.440	-0.469292
10.3517	132.457	-0.474406
10.3533	132.473	-0.480249
10.3550	132.489	-0.485288
10.3567	132.505	-0.490462
10.3583	132.521	-0.495756
10.3600	132.536	-0.500990
10.3617	132.552	-0.505725
10.3633	132.568	-0.511027
10.3650	132.584	-0.516318
10.3667	132.599	-0.522123
10.3683	132.616	-0.528008
10.3700	132.631	-0.534618
10.3717	132.647	-0.541342
10.3733	132.662	-0.548446
10.3750	132.678	-0.555390
10.3767	132.694	-0.562499
10.3783	132.709	-0.570224
10.3800	132.725	-0.577071
10.3817	132.739	-0.584160
10.3833	132.755	-0.591840
10.3850	132.770	-0.599121
10.3867	132.786	-0.606164
10.3883	132.802	-0.614104
10.3900	132.817	-0.622025
10.3917	132.832	-0.628568
10.3933	132.847	-0.635439
10.3950	132.863	-0.642091
10.3967	132.879	-0.649025
10.3983	132.893	-0.655880
10.4000	132.908	-0.662392
10.4017	132.924	-0.669365
10.4033	132.938	-0.675704
10.4050	132.954	-0.681932
10.4067	132.970	-0.688975
10.4083	132.984	-0.696279
10.4100	133.000	-0.702708
10.4117	133.015	-0.708658
10.4133	133.030	-0.714502
10.4150	133.045	-0.720358
10.4167	133.061	-0.726352
10.4183	133.075	-0.732273
10.4200	133.090	-0.737417
10.4217	133.106	-0.742599
10.4233	133.121	-0.747422
10.4250	133.136	-0.751914
10.4267	133.152	-0.756712
10.4283	133.167	-0.760828
10.4300	133.182	-0.764503
10.4317	133.197	-0.767868
10.4333	133.212	-0.771363
10.4350	133.228	-0.773998
10.4367	133.243	-0.777278
10.4383	133.258	-0.780471
10.4400	133.273	-0.783627
10.4417	133.289	-0.787070
10.4433	133.304	-0.789857
10.4450	133.319	-0.792721
10.4467	133.335	-0.795668
10.4483	133.351	-0.798286
10.4500	133.366	-0.800355
10.4517	133.381	-0.802607
10.4533	133.397	-0.803973
10.4550	133.412	-0.804864
10.4567	133.427	-0.806081
10.4583	133.443	-0.807653
10.4600	133.459	-0.809036
10.4617	133.474	-0.810015
10.4633	133.489	-0.811521
10.4650	133.505	-0.812828
10.4667	133.520	-0.814325
10.4683	133.536	-0.814936
10.4700	133.551	-0.816057
10.4717	133.568	-0.816609
10.4733	133.583	-0.817127
10.4750	133.599	-0.817062
10.4767	133.615	-0.817510
10.4783	133.632	-0.817862
10.4800	133.647	-0.817344
10.4817	133.663	-0.817429
10.4833	133.678	-0.817445
10.4850	133.695	-0.817847
10.4867	133.710	-0.818166
10.4883	133.726	-0.818493
10.4900	133.742	-0.818719
10.4917	133.758	-0.818742
10.4933	133.774	-0.818498
10.4950	133.791	-0.818339
10.4967	133.806	-0.818497
10.4983	133.822	-0.818040
10.5000	133.838	-0.817512
10.5017	133.854	-0.817391
10.5033	133.869	-0.817054
10.5050	133.887	-0.816570
10.5067	133.903	-0.816377
10.5083	133.918	-0.816059
10.5100	133.935	-0.815359
10.5117	133.951	-0.814696
10.5133	133.967	-0.813780
10.5150	133.983	-0.813505
10.5167	134.000	-0.813242
10.5183	134.015	-0.812703
10.5200	134.031	-0.812586
10.5217	134.048	-0.812377
10.5233	134.065	-0.812135
10.5250	134.080	-0.811707
10.5267	134.097	-0.811444
10.5283	134.114	-0.810760
10.5300	134.129	-0.810043
10.5317	134.147	-0.809139
10.5333	134.164	-0.808652
10.5350	134.179	-0.807374
10.5367	134.195	-0.807233
10.5383	134.212	-0.806795
10.5400	134.228	-0.806236
10.5417	134.244	-0.805318
10.5433	134.261	-0.805023
10.5450	134.277	-0.804840
10.5467	134.293	-0.804108
10.5483	134.311	-0.803487
10.5500	134.327	-0.802857
10.5517	134.343	-0.802665
10.5533	134.360	-0.801759
10.5550	134.377	-0.801360
10.5567	134.394	-0.801011
10.5583	134.409	-0.800860
10.5600	134.427	-0.800931
10.5617	134.442	-0.800719
10.5633	134.459	-0.800188
10.5650	134.475	-0.800131
10.5667	134.492	-0.799858
10.5683	134.508	-0.799459
10.5700	134.524	-0.799007
10.5717	134.541	-0.798636
10.5733	134.558	-0.798258
10.5750	134.575	-0.797946
10.5767	134.591	-0.797536
10.5783	134.608	-0.797467
10.5800	134.624	-0.797298
10.5817	134.641	-0.796683
10.5833	134.657	-0.796391
10.5850	134.674	-0.796114
10.5867	134.690	-0.795757
10.5883	134.707	-0.795626
10.5900	134.725	-0.795404
10.5917	134.740	-0.795300
10.5933	134.759	-0.795315
10.5950	134.774	-0.795260
10.5967	134.792	-0.795276
10.5983	134.808	-0.795342
10.6000	134.824	-0.795425
10.6017	134.841	-0.795526
10.6033	134.858	-0.795569
10.6050	134.874	-0.795552
10.6067	134.891	-0.795526
10.6083	134.907	-0.795418
10.6100	134.924	-0.795297
10.6117	134.940	-0.795122
10.6133	134.958	-0.794922
10.6150	134.974	-0.794713
10.6167	134.991	-0.794473
10.6183	135.008	-0.794264
10.6200	135.024	-0.794232
10.6217	135.042	-0.794239
10.6233	135.057	-0.794252
10.6250	135.074	-0.794269
10.6267	135.090	-0.794284
10.6283	135.108	-0.794304
10.6300	135.125	-0.794328
10.6317	135.141	-0.794361
10.6333	135.157	-0.794400
10.6350	135.174	-0.794471
10.6367	135.190	-0.794554
10.6383	135.207	-0.794799
10.6400	135.224	-0.795106
10.6417	135.240	-0.795504
10.6433	135.258	-0.795997
10.6450	135.274	-0.796428
10.6467	135.290	-0.796919
10.6483	135.307	-0.797417
10.6500	135.324	-0.798083
10.6517	135.340	-0.798828
10.6533	135.358	-0.799672
10.6550	135.374	-0.800592
10.6567	135.391	-0.801921
10.6583	135.407	-0.803691
10.6600	135.423	-0.805418
10.6617	135.440	-0.807072
10.6633	135.456	-0.809056
10.6650	135.472	-0.811076
10.6667	135.488	-0.812719
10.6683	135.506	-0.814575
10.6700	135.522	-0.816464
10.6717	135.539	-0.817514
10.6733	135.556	-0.818131
10.6750	135.573	-0.819098
10.6767	135.590	-0.820251
10.6783	135.606	-0.821242
10.6800	135.622	-0.822475
10.6817	135.638	-0.824513
10.6833	135.655	-0.826817
10.6850	135.672	-0.828967
10.6867	135.688	-0.831404
10.6883	135.704	-0.833405
10.6900	135.720	-0.834861
10.6917	135.737	-0.836760
10.6933	135.754	-0.838222
10.6950	135.771	-0.839149
10.6967	135.787	-0.840588
10.6983	135.804	-0.842740
10.7000	135.819	-0.845594
10.7017	135.835	-0.847863
10.7033	135.852	-0.850105
10.7050	135.869	-0.852670
10.7067	135.885	-0.855458
10.7083	135.901	-0.857830
10.7100	135.916	-0.860258
10.7117	135.934	-0.862272
10.7133	135.950	-0.863933
10.7150	135.967	-0.865546
10.7167	135.983	-0.867847
10.7183	135.999	-0.870284
10.7200	136.015	-0.872974
10.7217	136.031	-0.874985
10.7233	136.047	-0.877750
10.7250	136.063	-0.880654
10.7267	136.080	-0.883834
10.7283	136.096	-0.886421
10.7300	136.112	-0.888709
10.7317	136.128	-0.891137
10.7333	136.145	-0.894507
10.7350	136.161	-0.897487
10.7367	136.177	-0.900485
10.7383	136.193	-0.903815
10.7400	136.209	-0.907439
10.7417	136.226	-0.910716
10.7433	136.242	-0.914119
10.7450	136.258	-0.917594
10.7467	136.274	-0.920284
10.7483	136.290	-0.922889
10.7500	136.306	-0.925190
10.7517	136.322	-0.928822
10.7533	136.339	-0.932229
10.7550	136.354	-0.935655
10.7567	136.371	-0.939146
10.7583	136.386	-0.943420
10.7600	136.402	-0.948024
10.7617	136.418	-0.951561
10.7633	136.434	-0.955385
10.7650	136.450	-0.959087
10.7667	136.466	-0.963021
10.7683	136.482	-0.966382
10.7700	136.498	-0.970212
10.7717	136.514	-0.973896
10.7733	136.530	-0.977326
10.7750	136.546	-0.981529
10.7767	136.562	-0.985527
10.7783	136.578	-0.989544
10.7800	136.592	-0.993406
10.7817	136.609	-0.997587
10.7833	136.625	-1.00166
10.7850	136.641	-1.00556
10.7867	136.657	-1.00971
10.7883	136.672	-1.01459
10.7900	136.688	-1.01884
10.7917	136.704	-1.02340
10.7933	136.720	-1.02798
10.7950	136.736	-1.03254
10.7967	136.751	-1.03683
10.7983	136.767	-1.04214
10.8000	136.783	-1.04699
10.8017	136.798	-1.05210
10.8033	136.814	-1.05680
10.8050	136.831	-1.06144
10.8067	136.847	-1.06703
10.8083	136.861	-1.07178
10.8100	136.877	-1.07661
10.8117	136.892	-1.08090
10.8133	136.907	-1.08582
10.8150	136.924	-1.09076
10.8167	136.939	-1.09627
10.8183	136.954	-1.10170
10.8200	136.969	-1.10742
10.8217	136.985	-1.11288
10.8233	137.000	-1.11911
10.8250	137.017	-1.12570
10.8267	137.033	-1.13197
10.8283	137.048	-1.13799
10.8300	137.062	-1.14400
10.8317	137.078	-1.15024
10.8333	137.094	-1.15650
10.8350	137.109	-1.16283
10.8367	137.124	-1.16928
10.8383	137.140	-1.17540
10.8400	137.155	-1.18173
10.8417	137.171	-1.18765
10.8433	137.186	-1.19430
10.8450	137.201	-1.20089
10.8467	137.216	-1.20761
10.8483	137.231	-1.21432
10.8500	137.245	-1.22106
10.8517	137.262	-1.22773
10.8533	137.276	-1.23416
10.8550	137.292	-1.24179
10.8567	137.307	-1.24851
10.8583	137.323	-1.25531
10.8600	137.338	-1.26226
10.8617	137.354	-1.26921
10.8633	137.368	-1.27660
10.8650	137.384	-1.28383
10.8667	137.399	-1.29173
10.8683	137.414	-1.29901
10.8700	137.428	-1.30637
10.8717	137.444	-1.31437
10.8733	137.459	-1.32302
10.8750	137.474	-1.33090
10.8767	137.489	-1.33893
10.8783	137.504	-1.34785
10.8800	137.519	-1.35669
10.8817	137.533	-1.36482
10.8833	137.548	-1.37328
10.8850	137.564	-1.38163
10.8867	137.578	-1.38959
10.8883	137.592	-1.39747
10.8900	137.607	-1.40606
10.8917	137.622	-1.41511
10.8933	137.636	-1.42403
10.8950	137.650	-1.43301
10.8967	137.666	-1.44255
10.8983	137.679	-1.45197
10.9000	137.695	-1.46177
10.9017	137.709	-1.47179
10.9033	137.724	-1.48092
10.9050	137.739	-1.49062
10.9067	137.754	-1.50002
10.9083	137.767	-1.50958
10.9100	137.782	-1.51964
10.9117	137.797	-1.52995
10.9133	137.812	-1.54044
10.9150	137.826	-1.55138
10.9167	137.841	-1.56217
10.9183	137.854	-1.57322
10.9200	137.870	-1.58464
10.9217	137.883	-1.59552
10.9233	137.898	-1.60632
10.9250	137.912	-1.61690
10.9267	137.927	-1.62783
10.9283	137.941	-1.63868
10.9300	137.954	-1.64974
10.9317	137.969	-1.66139
10.9333	137.984	-1.67299
10.9350	137.997	-1.68493
10.9367	138.012	-1.69721
10.9383	138.026	-1.70913
10.9400	138.039	-1.72118
10.9417	138.053	-1.73319
10.9433	138.068	-1.74546
10.9450	138.081	-1.75731
10.9467	138.095	-1.76941
10.9483	138.109	-1.78131
10.9500	138.124	-1.79382
10.9517	138.138	-1.80659
10.9533	138.151	-1.81852
10.9550	138.165	-1.83083
10.9567	138.179	-1.84324
10.9583	138.192	-1.85602
10.9600	138.207	-1.86806
10.9617	138.220	-1.88023
10.9633	138.233	-1.89234
10.9650	138.247	-1.90550
10.9667	138.261	-1.91843
10.9683	138.274	-1.93225
10.9700	138.289	-1.94620
10.9717	138.302	-1.95965
10.9733	138.316	-1.97322
10.9750	138.329	-1.98728
10.9767	138.343	-2.00124
10.9783	138.356	-2.01493
10.9800	138.370	-2.02897
10.9817	138.384	-2.04270
10.9833	138.396	-2.05753
10.9850	138.409	-2.07279
10.9867	138.423	-2.08877
10.9883	138.437	-2.10465
10.9900	138.450	-2.12068
10.9917	138.463	-2.13621
10.9933	138.477	-2.15234
10.9950	138.490	-2.16789
10.9967	138.502	-2.18314
10.9983	138.515	-2.19869
11.0000	138.528	-2.21393
11.0017	138.542	-2.22981
11.0033	138.554	-2.24579
11.0050	138.568	-2.26216
11.0067	138.580	-2.27882
11.0083	138.594	-2.29505
11.0100	138.606	-2.31058
11.0117	138.619	-2.32643
11.0133	138.631	-2.34231
11.0150	138.644	-2.35784
11.0167	138.657	-2.37359
11.0183	138.669	-2.38989
11.0200	138.682	-2.40638
11.0217	138.694	-2.42262
11.0233	138.708	-2.43882
11.0250	138.721	-2.45606
11.0267	138.733	-2.47325
11.0283	138.745	-2.49020
11.0300	138.759	-2.50723
11.0317	138.770	-2.52469
11.0333	138.783	-2.54255
11.0350	138.795	-2.56087
11.0367	138.809	-2.57969
11.0383	138.820	-2.59904
11.0400	138.832	-2.61782
11.0417	138.845	-2.63668
11.0433	138.857	-2.65560
11.0450	138.869	-2.67505
11.0467	138.881	-2.69435
11.0483	138.893	-2.71339
11.0500	138.906	-2.73223
11.0517	138.918	-2.75127
11.0533	138.931	-2.76965
11.0550	138.942	-2.78845
11.0567	138.955	-2.80672
11.0583	138.967	-2.82498
11.0600	138.979	-2.84267
11.0617	138.990	-2.85983
11.0633	139.003	-2.87753
11.0650	139.014	-2.89547
11.0667	139.026	-2.91389
11.0683	139.037	-2.93303
11.0700	139.050	-2.95262
11.0717	139.062	-2.97182
11.0733	139.074	-2.99127
11.0750	139.086	-3.00999
11.0767	139.097	-3.02883
11.0783	139.110	-3.04679
11.0800	139.121	-3.06385
11.0817	139.132	-3.08077
11.0833	139.144	-3.09822
11.0850	139.156	-3.11538
11.0867	139.169	-3.13302
11.0883	139.181	-3.15084
11.0900	139.193	-3.16890
11.0917	139.204	-3.18616
11.0933	139.215	-3.20416
11.0950	139.227	-3.22156
11.0967	139.239	-3.23854
11.0983	139.251	-3.25531
11.1000	139.262	-3.27151
11.1017	139.275	-3.28817
11.1033	139.286	-3.30459
11.1050	139.298	-3.32172
11.1067	139.310	-3.33934
11.1083	139.321	-3.35719
11.1100	139.332	-3.37537
11.1117	139.345	-3.39355
11.1133	139.357	-3.41208
11.1150	139.368	-3.43066
11.1167	139.380	-3.44989
11.1183	139.391	-3.46937
11.1200	139.404	-3.48896
11.1217	139.414	-3.50857
11.1233	139.426	-3.52768
11.1250	139.437	-3.54671
11.1267	139.450	-3.56592
11.1283	139.460	-3.58438
11.1300	139.472	-3.60201
11.1317	139.484	-3.61909
11.1333	139.495	-3.63528
11.1350	139.507	-3.65021
11.1367	139.518	-3.66538
11.1383	139.530	-3.68045
11.1400	139.543	-3.69507
11.1417	139.553	-3.71032
11.1433	139.565	-3.72606
11.1450	139.577	-3.74123
11.1467	139.588	-3.75675
11.1483	139.600	-3.77246
11.1500	139.612	-3.78918
11.1517	139.624	-3.80622
11.1533	139.636	-3.82234
11.1550	139.647	-3.83987
11.1567	139.659	-3.85768
11.1583	139.671	-3.87681
11.1600	139.682	-3.89654
11.1617	139.694	-3.91868
11.1633	139.705	-3.94198
11.1650	139.717	-3.96783
11.1667	139.729	-3.99577
11.1683	139.740	-4.02754
11.1700	139.751	-4.06159
11.1717	139.763	-4.09868
11.1733	139.774	-4.13805
11.1750	139.784	-4.17939
11.1767	139.795	-4.22127
11.1783	139.804	-4.26335
11.1800	139.814	-4.30498
11.1817	139.824	-4.34583
11.1833	139.834	-4.38569
11.1850	139.843	-4.42458
11.1867	139.853	-4.46353
11.1883	139.863	-4.50094
11.1900	139.871	-4.53814
11.1917	139.881	-4.57422
11.1933	139.890	-4.60933
11.1950	139.898	-4.64258
11.1967	139.907	-4.67369
11.1983	139.916	-4.70206
11.2000	139.925	-4.72799
11.2017	139.934	-4.75129
11.2033	139.944	-4.77234
11.2050	139.952	-4.79249
11.2067	139.962	-4.81132
11.2083	139.971	-4.83017
11.2100	139.981	-4.84793
11.2117	139.991	-4.86504
11.2133	140.001	-4.88264
11.2150	140.009	-4.90025
11.2167	140.020	-4.91671
11.2183	140.029	-4.93309
11.2200	140.038	-4.94902
11.2217	140.048	-4.96394
11.2233	140.058	-4.97973
11.2250	140.068	-4.99593
11.2267	140.078	-5.01366
11.2283	140.087	-5.03249
11.2300	140.098	-5.05338
11.2317	140.109	-5.07622
11.2333	140.118	-5.10173
11.2350	140.129	-5.12865
11.2367	140.139	-5.15700
11.2383	140.149	-5.18441
11.2400	140.159	-5.21194
11.2417	140.168	-5.23855
11.2433	140.178	-5.26367
11.2450	140.187	-5.28707
11.2467	140.197	-5.30822
11.2483	140.207	-5.32722
11.2500	140.217	-5.34270
11.2517	140.227	-5.35504
11.2533	140.238	-5.36546
11.2550	140.247	-5.37362
11.2567	140.258	-5.37854
11.2583	140.269	-5.38226
11.2600	140.278	-5.38596
11.2617	140.289	-5.38877
11.2633	140.301	-5.39230
11.2650	140.312	-5.39645
11.2667	140.323	-5.40059
11.2683	140.335	-5.40367
11.2700	140.347	-5.40504
11.2717	140.358	-5.40576
11.2733	140.370	-5.40380
11.2750	140.382	-5.39869
11.2767	140.394	-5.39167
11.2783	140.407	-5.38313
11.2800	140.420	-5.37275
11.2817	140.432	-5.36109
11.2833	140.446	-5.34858
11.2850	140.459	-5.33625
11.2867	140.473	-5.32302
11.2883	140.486	-5.30851
11.2900	140.501	-5.29277
11.2917	140.514	-5.27499
11.2933	140.529	-5.25359
11.2950	140.544	-5.22972
11.2967	140.558	-5.20344
11.2983	140.573	-5.17431
11.3000	140.590	-5.14203
11.3017	140.605	-5.10831
11.3033	140.621	-5.07329
11.3050	140.638	-5.03874
11.3067	140.655	-5.00442
11.3083	140.672	-4.97063
11.3100	140.689	-4.93776
11.3117	140.708	-4.90667
11.3133	140.725	-4.87811
11.3150	140.743	-4.85089
11.3167	140.761	-4.82475
11.3183	140.779	-4.79763
11.3200	140.798	-4.77004
11.3217	140.817	-4.74082
11.3233	140.836	-4.71035
11.3250	140.855	-4.67772
11.3267	140.874	-4.64290
11.3283	140.894	-4.60743
11.3300	140.914	-4.57135
11.3317	140.935	-4.53544
11.3333	140.954	-4.50062
11.3350	140.975	-4.46651
11.3367	140.995	-4.43228
11.3383	141.016	-4.39869
11.3400	141.038	-4.36529
11.3417	141.059	-4.33242
11.3433	141.079	-4.29918
11.3450	141.101	-4.26545
11.3467	141.122	-4.23103
11.3483	141.145	-4.19625
11.3500	141.166	-4.16035
11.3517	141.188	-4.12320
11.3533	141.210	-4.08462
11.3550	141.234	-4.04532
11.3567	141.255	-4.00546
11.3583	141.279	-3.96486
11.3600	141.300	-3.92358
11.3617	141.324	-3.88217
11.3633	141.348	-3.83997
11.3650	141.371	-3.79674
11.3667	141.394	-3.75356
11.3683	141.417	-3.70962
11.3700	141.442	-3.66514
11.3717	141.466	-3.61918
11.3733	141.490	-3.57270
11.3750	141.513	-3.52508
11.3767	141.538	-3.47646
11.3783	141.563	-3.42657
11.3800	141.589	-3.37506
11.3817	141.613	-3.32135
11.3833	141.639	-3.26602
11.3850	141.665	-3.20900
11.3867	141.692	-3.15087
11.3883	141.717	-3.09191
11.3900	141.743	-3.03215
11.3917	141.771	-2.97176
11.3933	141.797	-2.91095
11.3950	141.825	-2.85018
11.3967	141.852	-2.78888
11.3983	141.879	-2.72921
11.4000	141.906	-2.66979
11.4017	141.935	-2.61095
11.4033	141.963	-2.55385
11.4050	141.990	-2.49756
11.4067	142.019	-2.44324
11.4083	142.048	-2.39033
11.4100	142.076	-2.34029
11.4117	142.104	-2.29245
11.4133	142.133	-2.24596
11.4150	142.162	-2.20156
11.4167	142.190	-2.15950
11.4183	142.219	-2.11911
11.4200	142.248	-2.08119
11.4217	142.276	-2.04573
11.4233	142.304	-2.01076
11.4250	142.332	-1.97716
11.4267	142.362	-1.94419
11.4283	142.390	-1.91302
11.4300	142.418	-1.88274
11.4317	142.446	-1.85306
11.4333	142.474	-1.82432
11.4350	142.502	-1.79595
11.4367	142.530	-1.76767
11.4383	142.558	-1.74083
11.4400	142.585	-1.71430
11.4417	142.613	-1.68807
11.4433	142.639	-1.66261
11.4450	142.667	-1.63696
11.4467	142.694	-1.61254
11.4483	142.721	-1.58898
11.4500	142.749	-1.56606
11.4517	142.776	-1.54482
11.4533	142.802	-1.52322
11.4550	142.829	-1.50293
11.4567	142.855	-1.48361
11.4583	142.882	-1.46420
11.4600	142.908	-1.44534
11.4617	142.933	-1.42732
11.4633	142.960	-1.40975
11.4650	142.986	-1.39252
11.4667	143.011	-1.37650
11.4683	143.038	-1.36051
11.4700	143.063	-1.34523
11.4717	143.088	-1.33046
11.4733	143.113	-1.31560
11.4750	143.138	-1.30138
11.4767	143.163	-1.28723
11.4783	143.188	-1.27310
11.4800	143.213	-1.25961
11.4817	143.238	-1.24680
11.4833	143.262	-1.23321
11.4850	143.287	-1.22029
11.4867	143.311	-1.20733
11.4883	143.336	-1.19457
11.4900	143.360	-1.18187
11.4917	143.383	-1.16882
11.4933	143.408	-1.15617
11.4950	143.432	-1.14377
11.4967	143.455	-1.13207
11.4983	143.479	-1.12100
11.5000	143.502	-1.11004
11.5017	143.525	-1.09898
11.5033	143.548	-1.08761
11.5050	143.571	-1.07671
11.5067	143.595	-1.06590
11.5083	143.618	-1.05457
11.5100	143.641	-1.04364
11.5117	143.664	-1.03270
11.5133	143.686	-1.02248
11.5150	143.709	-1.01281
11.5167	143.731	-1.00367
11.5183	143.754	-0.994917
11.5200	143.776	-0.986053
11.5217	143.798	-0.976821
11.5233	143.821	-0.968113
11.5250	143.843	-0.959461
11.5267	143.865	-0.950378
11.5283	143.886	-0.941567
11.5300	143.909	-0.932615
11.5317	143.931	-0.923780
11.5333	143.952	-0.915045
11.5350	143.974	-0.906341
11.5367	143.996	-0.898216
11.5383	144.017	-0.890376
11.5400	144.038	-0.882085
11.5417	144.060	-0.874444
11.5433	144.082	-0.866558
11.5450	144.102	-0.858480
11.5467	144.123	-0.851006
11.5483	144.145	-0.843988
11.5500	144.165	-0.836501
11.5517	144.187	-0.828771
11.5533	144.208	-0.821795
11.5550	144.229	-0.814624
11.5567	144.250	-0.807733
11.5583	144.271	-0.800747
11.5600	144.291	-0.794646
11.5617	144.311	-0.788231
11.5633	144.333	-0.782199
11.5650	144.353	-0.775334
11.5667	144.373	-0.769486
11.5683	144.393	-0.763756
11.5700	144.414	-0.757724
11.5717	144.434	-0.752236
11.5733	144.454	-0.746014
11.5750	144.475	-0.739871
11.5767	144.495	-0.733340
11.5783	144.515	-0.727323
11.5800	144.535	-0.721608
11.5817	144.555	-0.716632
11.5833	144.575	-0.710807
11.5850	144.595	-0.705670
11.5867	144.615	-0.701393
11.5883	144.635	-0.696616
11.5900	144.654	-0.692466
11.5917	144.674	-0.687437
11.5933	144.694	-0.682153
11.5950	144.714	-0.676588
11.5967	144.733	-0.671256
11.5983	144.752	-0.666319
11.6000	144.772	-0.660879
11.6017	144.791	-0.655771
11.6033	144.812	-0.651031
11.6050	144.829	-0.647017
11.6067	144.849	-0.642850
11.6083	144.868	-0.639354
11.6100	144.887	-0.635523
11.6117	144.907	-0.631493
11.6133	144.926	-0.627022
11.6150	144.945	-0.622376
11.6167	144.963	-0.618898
11.6183	144.983	-0.614929
11.6200	145.002	-0.610938
11.6217	145.021	-0.607314
11.6233	145.041	-0.603838
11.6250	145.060	-0.600559
11.6267	145.078	-0.597124
11.6283	145.097	-0.593326
11.6300	145.116	-0.590060
11.6317	145.135	-0.585753
11.6333	145.153	-0.581370
11.6350	145.171	-0.577446
11.6367	145.190	-0.574203
11.6383	145.208	-0.571261
11.6400	145.228	-0.567950
11.6417	145.246	-0.564927
11.6433	145.266	-0.562276
11.6450	145.284	-0.559179
11.6467	145.303	-0.555841
11.6483	145.322	-0.552361
11.6500	145.339	-0.549025
11.6517	145.358	-0.545627
11.6533	145.376	-0.542289
11.6550	145.394	-0.539753
11.6567	145.413	-0.537806
11.6583	145.431	-0.535259
11.6600	145.450	-0.533128
11.6617	145.468	-0.530709
11.6633	145.486	-0.528676
11.6650	145.504	-0.525889
11.6667	145.522	-0.523329
11.6683	145.541	-0.520339
11.6700	145.559	-0.517477
11.6717	145.577	-0.514216
11.6733	145.595	-0.511558
11.6750	145.613	-0.509428
11.6767	145.631	-0.506492
11.6783	145.649	-0.503692
11.6800	145.667	-0.501095
11.6817	145.685	-0.498669
11.6833	145.704	-0.495981
11.6850	145.721	-0.495124
11.6867	145.739	-0.492979
11.6883	145.757	-0.490838
11.6900	145.775	-0.488734
11.6917	145.793	-0.487699
11.6933	145.811	-0.486467
11.6950	145.828	-0.484848
11.6967	145.847	-0.482952
11.6983	145.864	-0.480795
11.7000	145.882	-0.478220
11.7017	145.900	-0.476075
11.7033	145.918	-0.474542
11.7050	145.936	-0.472154
11.7067	145.954	-0.469602
11.7083	145.972	-0.467500
11.7100	145.989	-0.465749
11.7117	146.006	-0.463922
11.7133	146.024	-0.462211
11.7150	146.042	-0.461571
11.7167	146.059	-0.460523
11.7183	146.077	-0.458770
11.7200	146.094	-0.457449
11.7217	146.112	-0.456631
11.7233	146.130	-0.455355
11.7250	146.147	-0.453541
11.7267	146.165	-0.451611
11.7283	146.182	-0.450099
11.7300	146.200	-0.448712
11.7317	146.218	-0.446781
11.7333	146.236	-0.445547
11.7350	146.254	-0.444232
11.7367	146.271	-0.442554
11.7383	146.288	-0.440778
11.7400	146.305	-0.439316
11.7417	146.323	-0.437853
11.7433	146.341	-0.436603
11.7450	146.358	-0.435050
11.7467	146.376	-0.434303
11.7483	146.393	-0.432796
11.7500	146.410	-0.431749
11.7517	146.427	-0.430835
11.7533	146.445	-0.429677
11.7550	146.463	-0.428046
11.7567	146.480	-0.426543
11.7583	146.496	-0.425030
11.7600	146.514	-0.423612
11.7617	146.532	-0.422933
11.7633	146.548	-0.422168
11.7650	146.566	-0.421480
11.7667	146.585	-0.420961
11.7683	146.601	-0.420201
11.7700	146.619	-0.419134
11.7717	146.636	-0.418766
11.7733	146.654	-0.418176
11.7750	146.671	-0.417022
11.7767	146.687	-0.415721
11.7783	146.705	-0.414308
11.7800	146.722	-0.413017
11.7817	146.739	-0.412305
11.7833	146.756	-0.411623
11.7850	146.775	-0.410446
11.7867	146.791	-0.409589
11.7883	146.808	-0.407929
11.7900	146.825	-0.407233
11.7917	146.843	-0.406188
11.7933	146.860	-0.405486
11.7950	146.877	-0.404778
11.7967	146.894	-0.403687
11.7983	146.911	-0.402801
11.8000	146.928	-0.402379
11.8017	146.946	-0.401660
11.8033	146.962	-0.400844
11.8050	146.980	-0.400083
11.8067	146.997	-0.399305
11.8083	147.013	-0.398695
11.8100	147.031	-0.397595
11.8117	147.048	-0.396930
11.8133	147.065	-0.396053
11.8150	147.081	-0.395231
11.8167	147.099	-0.394555
11.8183	147.116	-0.393969
11.8200	147.133	-0.393234
11.8217	147.151	-0.393209
11.8233	147.167	-0.392941
11.8250	147.185	-0.392724
11.8267	147.202	-0.392328
11.8283	147.218	-0.392022
11.8300	147.236	-0.391258
11.8317	147.252	-0.390262
11.8333	147.270	-0.389412
11.8350	147.287	-0.388313
11.8367	147.303	-0.387449
11.8383	147.319	-0.386328
11.8400	147.338	-0.386145
11.8417	147.355	-0.386018
11.8433	147.371	-0.385477
11.8450	147.389	-0.384958
11.8467	147.405	-0.384777
11.8483	147.424	-0.384025
11.8500	147.440	-0.383678
11.8517	147.457	-0.383152
11.8533	147.474	-0.382633
11.8550	147.491	-0.381994
11.8567	147.507	-0.381520
11.8583	147.524	-0.381376
11.8600	147.540	-0.381228
11.8617	147.558	-0.380941
11.8633	147.574	-0.380581
11.8650	147.592	-0.379956
11.8667	147.609	-0.379165
11.8683	147.626	-0.378819
11.8700	147.643	-0.378273
11.8717	147.660	-0.377912
11.8733	147.677	-0.377181
11.8750	147.693	-0.376629
11.8767	147.710	-0.376294
11.8783	147.727	-0.375798
11.8800	147.744	-0.375506
11.8817	147.761	-0.375307
11.8833	147.778	-0.375002
11.8850	147.795	-0.374618
11.8867	147.812	-0.374493
11.8883	147.829	-0.374212
11.8900	147.845	-0.373923
11.8917	147.862	-0.373583
11.8933	147.880	-0.373332
11.8950	147.897	-0.373172
11.8967	147.913	-0.373016
11.8983	147.929	-0.372887
11.9000	147.946	-0.372747
11.9017	147.964	-0.372536
11.9033	147.980	-0.372443
11.9050	147.998	-0.372358
11.9067	148.014	-0.372255
11.9083	148.031	-0.372063
11.9100	148.047	-0.371744
11.9117	148.064	-0.371401
11.9133	148.081	-0.371149
11.9150	148.098	-0.371054
11.9167	148.114	-0.370916
11.9183	148.133	-0.370760
11.9200	148.149	-0.370626
11.9217	148.167	-0.370462
11.9233	148.183	-0.370240
11.9250	148.200	-0.369949
11.9267	148.216	-0.369640
11.9283	148.234	-0.369202
11.9300	148.250	-0.368647
11.9317	148.267	-0.368248
11.9333	148.283	-0.367830
11.9350	148.300	-0.367459
11.9367	148.318	-0.367221
11.9383	148.334	-0.367093
11.9400	148.351	-0.366992
11.9417	148.367	-0.366901
11.9433	148.385	-0.366840
11.9450	148.401	-0.366819
11.9467	148.418	-0.366750
11.9483	148.434	-0.366655
11.9500	148.451	-0.366551
11.9517	148.468	-0.366391
11.9533	148.485	-0.366164
11.9550	148.501	-0.365813
11.9567	148.519	-0.365387
11.9583	148.536	-0.365016
11.9600	148.552	-0.364678
11.9617	148.568	-0.364425
11.9633	148.587	-0.364202
11.9650	148.603	-0.364049
11.9667	148.619	-0.363944
11.9683	148.636	-0.363855
11.9700	148.653	-0.363767
11.9717	148.670	-0.363684
11.9733	148.687	-0.363564
11.9750	148.704	-0.363465
11.9767	148.721	-0.363350
11.9783	148.737	-0.363235
11.9800	148.754	-0.363129
11.9817	148.771	-0.363012
11.9833	148.787	-0.362886
11.9850	148.804	-0.362836
11.9867	148.821	-0.362797
11.9883	148.837	-0.362767
11.9900	148.854	-0.362707
11.9917	148.871	-0.362624
11.9933	148.889	-0.362480
11.9950	148.905	-0.362284
11.9967	148.922	-0.362016
11.9983	148.938	-0.361761
12.0000	148.954	-0.361494
12.0017	148.972	-0.361305
12.0033	148.989	-0.361167
12.0050	149.006	-0.361117
12.0067	149.022	-0.361093
12.0083	149.039	-0.361072
12.0100	149.055	-0.361046
12.0117	149.072	-0.361002
12.0133	149.089	-0.360956
12.0150	149.106	-0.360912
12.0167	149.123	-0.360845
12.0183	149.140	-0.360809
12.0200	149.156	-0.360778
12.0217	149.173	-0.360731
12.0233	149.190	-0.360709
12.0250	149.207	-0.360696
12.0267	149.224	-0.360571
12.0283	149.241	-0.360556
12.0300	149.256	-0.360516
12.0317	149.274	-0.360476
12.0333	149.290	-0.360431
12.0350	149.307	-0.360374
12.0367	149.323	-0.360344
12.0383	149.340	-0.360271
12.0400	149.357	-0.360188
12.0417	149.373	-0.360062
12.0433	149.391	-0.359896
12.0450	149.407	-0.359787
12.0467	149.424	-0.359696
12.0483	149.441	-0.359589
12.0500	149.458	-0.359478
12.0517	149.475	-0.359377
12.0533	149.491	-0.359323
12.0550	149.508	-0.359282
12.0567	149.525	-0.359212
12.0583	149.541	-0.359176
12.0600	149.558	-0.359156
12.0617	149.576	-0.359137
12.0633	149.592	-0.359114
12.0650	149.608	-0.359093
12.0667	149.624	-0.359064
12.0683	149.641	-0.359038
12.0700	149.658	-0.358995
12.0717	149.674	-0.358964
12.0733	149.691	-0.358925
12.0750	149.709	-0.358879
12.0767	149.725	-0.358855
12.0783	149.742	-0.358830
12.0800	149.758	-0.358809
12.0817	149.775	-0.358785
12.0833	149.792	-0.358755
12.0850	149.809	-0.358730
12.0867	149.825	-0.358689
12.0883	149.842	-0.358624
12.0900	149.858	-0.358583
12.0917	149.875	-0.358541
12.0933	149.892	-0.358514
12.0950	149.908	-0.358490
12.0967	149.926	-0.358418
12.0983	149.943	-0.358385
12.1000	149.959	-0.358338
12.1017	149.976	-0.358291
12.1033	149.992	-0.358269
12.1050	150.009	-0.358243
12.1067	150.026	-0.358187
12.1083	150.042	-0.358147
12.1100	150.060	-0.358080
12.1117	150.076	-0.358012
12.1133	150.092	-0.357932
12.1150	150.110	-0.357881
12.1167	150.126	-0.357851
12.1183	150.142	-0.357824
12.1200	150.159	-0.357783
12.1217	150.176	-0.357757
12.1233	150.193	-0.357728
12.1250	150.209	-0.357695
12.1267	150.227	-0.357664
12.1283	150.243	-0.357613
12.1300	150.259	-0.357577
12.1317	150.277	-0.357546
12.1333	150.293	-0.357518
12.1350	150.310	-0.357491
12.1367	150.326	-0.357446
12.1383	150.343	-0.357426
12.1400	150.361	-0.357406
12.1417	150.376	-0.357384
12.1433	150.393	-0.357357
12.1450	150.411	-0.357331
12.1467	150.426	-0.357301
12.1483	150.443	-0.357271
12.1500	150.460	-0.357238
12.1517	150.477	-0.357183
12.1533	150.493	-0.357096
12.1550	150.510	-0.357011
12.1567	150.527	-0.356938
12.1583	150.543	-0.356905
12.1600	150.560	-0.356854
12.1617	150.576	-0.356824
12.1633	150.593	-0.356783
12.1650	150.610	-0.356757
12.1667	150.627	-0.356735
12.1683	150.643	-0.356715
12.1700	150.660	-0.356696
12.1717	150.677	-0.356675
12.1733	150.694	-0.356654
12.1750	150.711	-0.356629
12.1767	150.727	-0.356602
12.1783	150.744	-0.356574
12.1800	150.761	-0.356544
12.1817	150.777	-0.356512
12.1833	150.793	-0.356451
12.1850	150.810	-0.356401
12.1867	150.827	-0.356366
12.1883	150.844	-0.356336
12.1900	150.861	-0.356311
12.1917	150.877	-0.356290
12.1933	150.894	-0.356263
12.1950	150.911	-0.356238
12.1967	150.927	-0.356215
12.1983	150.945	-0.356191
12.2000	150.961	-0.356168
12.2017	150.978	-0.356141
12.2033	150.994	-0.356112
12.2050	151.011	-0.356086
12.2067	151.027	-0.356057
12.2083	151.043	-0.356025
12.2100	151.060	-0.355990
12.2117	151.076	-0.355956
12.2133	151.094	-0.355897
12.2150	151.110	-0.355858
12.2167	151.127	-0.355825
12.2183	151.143	-0.355796
12.2200	151.160	-0.355767
12.2217	151.177	-0.355741
12.2233	151.194	-0.355717
12.2250	151.210	-0.355691
12.2267	151.227	-0.355663
12.2283	151.244	-0.355629
12.2300	151.260	-0.355593
12.2317	151.277	-0.355557
12.2333	151.294	-0.355528
12.2350	151.311	-0.355497
12.2367	151.327	-0.355467
12.2383	151.344	-0.355441
12.2400	151.360	-0.355419
12.2417	151.377	-0.355401
12.2433	151.393	-0.355386
12.2450	151.411	-0.355373
12.2467	151.427	-0.355357
12.2483	151.444	-0.355336
12.2500	151.460	-0.355308
12.2517	151.477	-0.355280
12.2533	151.494	-0.355248
12.2550	151.510	-0.355218
12.2567	151.527	-0.355184
12.2583	151.543	-0.355150
12.2600	151.560	-0.355118
12.2617	151.577	-0.355090
12.2633	151.593	-0.355069
12.2650	151.610	-0.355049
12.2667	151.628	-0.355029
12.2683	151.643	-0.355009
12.2700	151.661	-0.354991
12.2717	151.677	-0.354970
12.2733	151.693	-0.354951
12.2750	151.710	-0.354936
12.2767	151.727	-0.354918
12.2783	151.743	-0.354900
12.2800	151.760	-0.354876
12.2817	151.776	-0.354854
12.2833	151.794	-0.354830
12.2850	151.810	-0.354804
12.2867	151.827	-0.354778
12.2883	151.843	-0.354754
12.2900	151.860	-0.354728
12.2917	151.876	-0.354699
12.2933	151.894	-0.354672
12.2950	151.910	-0.354641
12.2967	151.927	-0.354618
12.2983	151.944	-0.354595
12.3000	151.960	-0.354574
12.3017	151.977	-0.354554
12.3033	151.994	-0.354532
12.3050	152.011	-0.354512
12.3067	152.027	-0.354495
12.3083	152.044	-0.354478
12.3100	152.061	-0.354461
12.3117	152.078	-0.354441
12.3133	152.095	-0.354418
12.3150	152.111	-0.354396
12.3167	152.127	-0.354371
12.3183	152.144	-0.354345
12.3200	152.162	-0.354319
12.3217	152.178	-0.354290
12.3233	152.195	-0.354261
12.3250	152.210	-0.354234
12.3267	152.228	-0.354206
12.3283	152.245	-0.354179
12.3300	152.261	-0.354156
12.3317	152.278	-0.354138
12.3333	152.294	-0.354124
12.3350	152.311	-0.354107
12.3367	152.327	-0.354087
12.3383	152.344	-0.354068
12.3400	152.361	-0.354049
12.3417	152.378	-0.354027
12.3433	152.395	-0.354007
12.3450	152.411	-0.353987
12.3467	152.427	-0.353962
12.3483	152.445	-0.353939
12.3500	152.461	-0.353915
12.3517	152.477	-0.353893
12.3533	152.494	-0.353872
12.3550	152.512	-0.353847
12.3567	152.528	-0.353819
12.3583	152.544	-0.353794
12.3600	152.561	-0.353767
12.3617	152.578	-0.353743
12.3633	152.595	-0.353721
12.3650	152.612	-0.353703
12.3667	152.628	-0.353687
12.3683	152.646	-0.353668
12.3700	152.661	-0.353650
12.3717	152.678	-0.353634
12.3733	152.695	-0.353616
12.3750	152.711	-0.353598
12.3767	152.728	-0.353580
12.3783	152.745	-0.353560
12.3800	152.761	-0.353538
12.3817	152.779	-0.353513
12.3833	152.795	-0.353489
12.3850	152.811	-0.353464
12.3867	152.829	-0.353440
12.3883	152.845	-0.353414
12.3900	152.862	-0.353387
12.3917	152.878	-0.353361
12.3933	152.895	-0.353337
12.3950	152.912	-0.353316
12.3967	152.929	-0.353297
12.3983	152.945	-0.353278
12.4000	152.962	-0.353258
12.4017	152.979	-0.353239
12.4033	152.994	-0.353212
12.4050	153.011	-0.353185
12.4067	153.028	-0.353164
12.4083	153.044	-0.353145
12.4100	153.062	-0.353125
12.4117	153.078	-0.353107
12.4133	153.095	-0.353087
12.4150	153.112	-0.353069
12.4167	153.129	-0.353051
12.4183	153.145	-0.353034
12.4200	153.162	-0.353017
12.4217	153.179	-0.352995
12.4233	153.196	-0.352969
12.4250	153.212	-0.352946
12.4267	153.229	-0.352925
12.4283	153.246	-0.352908
12.4300	153.262	-0.352892
12.4317	153.278	-0.352875
12.4333	153.295	-0.352858
12.4350	153.312	-0.352837
12.4367	153.328	-0.352818
12.4383	153.346	-0.352799
12.4400	153.362	-0.352776
12.4417	153.378	-0.352750
12.4433	153.395	-0.352721
12.4450	153.413	-0.352689
12.4467	153.428	-0.352661
12.4483	153.445	-0.352632
12.4500	153.462	-0.352604
12.4517	153.478	-0.352573
12.4533	153.495	-0.352544
12.4550	153.512	-0.352518
12.4567	153.528	-0.352501
12.4583	153.545	-0.352486
12.4600	153.561	-0.352474
12.4617	153.578	-0.352466
12.4633	153.596	-0.352460
12.4650	153.612	-0.352451
12.4667	153.628	-0.352438
12.4683	153.645	-0.352422
12.4700	153.663	-0.352403
12.4717	153.679	-0.352380
12.4733	153.695	-0.352356
12.4750	153.712	-0.352337
12.4767	153.728	-0.352315
12.4783	153.745	-0.352294
12.4800	153.761	-0.352273
12.4817	153.778	-0.352255
12.4833	153.794	-0.352237
12.4850	153.811	-0.352216
12.4867	153.828	-0.352196
12.4883	153.845	-0.352179
12.4900	153.861	-0.352160
12.4917	153.878	-0.352143
12.4933	153.895	-0.352123
12.4950	153.912	-0.352104
12.4967	153.928	-0.352085
12.4983	153.944	-0.352061
12.5000	153.962	-0.352038
12.5017	153.978	-0.352019
12.5033	153.995	-0.351998
12.5050	154.011	-0.351977
12.5067	154.028	-0.351956
12.5083	154.045	-0.351936
12.5100	154.061	-0.351914
12.5117	154.078	-0.351890
12.5133	154.095	-0.351870
12.5150	154.111	-0.351846
12.5167	154.128	-0.351822
12.5183	154.144	-0.351802
12.5200	154.161	-0.351785
12.5217	154.178	-0.351771
12.5233	154.194	-0.351762
12.5250	154.211	-0.351751
12.5267	154.228	-0.351737
12.5283	154.244	-0.351724
12.5300	154.261	-0.351710
12.5317	154.278	-0.351695
12.5333	154.295	-0.351677
12.5350	154.311	-0.351657
12.5367	154.328	-0.351636
12.5383	154.345	-0.351622
12.5400	154.361	-0.351611
12.5417	154.378	-0.351605
12.5433	154.394	-0.351604
12.5450	154.411	-0.351600
12.5467	154.429	-0.351597
12.5483	154.445	-0.351590
12.5500	154.461	-0.351576
12.5517	154.478	-0.351559
12.5533	154.494	-0.351542
12.5550	154.510	-0.351524
12.5567	154.528	-0.351511
12.5583	154.545	-0.351501
12.5600	154.562	-0.351491
12.5617	154.579	-0.351481
12.5633	154.595	-0.351474
12.5650	154.613	-0.351464
12.5667	154.628	-0.351449
12.5683	154.645	-0.351428
12.5700	154.661	-0.351406
12.5717	154.678	-0.351389
12.5733	154.695	-0.351375
12.5750	154.712	-0.351368
12.5767	154.728	-0.351367
12.5783	154.745	-0.351372
12.5800	154.762	-0.351376
12.5817	154.778	-0.351377
12.5833	154.795	-0.351380
12.5850	154.812	-0.351379
12.5867	154.828	-0.351373
12.5883	154.846	-0.351363
12.5900	154.861	-0.351350
12.5917	154.878	-0.351337
12.5933	154.894	-0.351327
12.5950	154.910	-0.351320
12.5967	154.928	-0.351310
12.5983	154.945	-0.351301
12.6000	154.962	-0.351290
12.6017	154.978	-0.351284
12.6033	154.995	-0.351279
12.6050	155.012	-0.351270
12.6067	155.028	-0.351258
12.6083	155.045	-0.351247
12.6100	155.061	-0.351242
12.6117	155.078	-0.351240
12.6133	155.094	-0.351238
12.6150	155.111	-0.351234
12.6167	155.128	-0.351234
12.6183	155.145	-0.351238
12.6200	155.161	-0.351244
12.6217	155.178	-0.351265
12.6233	155.195	-0.351279
12.6250	155.212	-0.351284
12.6267	155.229	-0.351288
12.6283	155.246	-0.351290
12.6300	155.262	-0.351287
12.6317	155.279	-0.351282
12.6333	155.295	-0.351270
12.6350	155.311	-0.351254
12.6367	155.328	-0.351243
12.6383	155.345	-0.351235
12.6400	155.361	-0.351229
12.6417	155.378	-0.351227
12.6433	155.395	-0.351232
12.6450	155.411	-0.351239
12.6467	155.428	-0.351246
12.6483	155.445	-0.351254
12.6500	155.462	-0.351260
12.6517	155.478	-0.351265
12.6533	155.496	-0.351268
12.6550	155.512	-0.351270
12.6567	155.529	-0.351275
12.6583	155.545	-0.351279
12.6600	155.563	-0.351284
12.6617	155.579	-0.351286
12.6633	155.595	-0.351289
12.6650	155.612	-0.351291
12.6667	155.629	-0.351291
12.6683	155.645	-0.351293
12.6700	155.662	-0.351298
12.6717	155.678	-0.351301
12.6733	155.695	-0.351305
12.6750	155.712	-0.351311
12.6767	155.728	-0.351321
12.6783	155.745	-0.351332
12.6800	155.762	-0.351348
12.6817	155.779	-0.351359
12.6833	155.795	-0.351368
12.6850	155.812	-0.351377
12.6867	155.829	-0.351382
12.6883	155.845	-0.351387
12.6900	155.862	-0.351386
12.6917	155.879	-0.351388
12.6933	155.895	-0.351390
12.6950	155.912	-0.351399
12.6967	155.929	-0.351408
12.6983	155.945	-0.351419
12.7000	155.962	-0.351434
12.7017	155.978	-0.351455
12.7033	155.996	-0.351537
12.7050	156.013	-0.351604
12.7067	156.029	-0.351649
12.7083	156.046	-0.351672
12.7100	156.062	-0.351701
12.7117	156.079	-0.351718
12.7133	156.097	-0.351740
12.7150	156.112	-0.351763
12.7167	156.129	-0.351780
12.7183	156.145	-0.351797
12.7200	156.161	-0.351811
12.7217	156.178	-0.351829
12.7233	156.195	-0.351844
12.7250	156.213	-0.351857
12.7267	156.228	-0.351862
12.7283	156.245	-0.351868
12.7300	156.262	-0.351879
12.7317	156.278	-0.351895
12.7333	156.296	-0.351916
12.7350	156.311	-0.351937
12.7367	156.329	-0.351958
12.7383	156.346	-0.352001
12.7400	156.363	-0.352065
12.7417	156.380	-0.352133
12.7433	156.395	-0.352210
12.7450	156.412	-0.352244
12.7467	156.430	-0.352268
12.7483	156.445	-0.352302
12.7500	156.462	-0.352333
12.7517	156.479	-0.352372
12.7533	156.495	-0.352407
12.7550	156.512	-0.352432
12.7567	156.529	-0.352484
12.7583	156.545	-0.352553
12.7600	156.562	-0.352615
12.7617	156.579	-0.352694
12.7633	156.595	-0.352750
12.7650	156.611	-0.352789
12.7667	156.629	-0.352823
12.7683	156.645	-0.352849
12.7700	156.662	-0.352872
12.7717	156.679	-0.352900
12.7733	156.696	-0.352924
12.7750	156.712	-0.352948
12.7767	156.729	-0.352980
12.7783	156.746	-0.353011
12.7800	156.762	-0.353050
12.7817	156.780	-0.353115
12.7833	156.796	-0.353194
12.7850	156.813	-0.353258
12.7867	156.829	-0.353302
12.7883	156.846	-0.353344
12.7900	156.863	-0.353407
12.7917	156.878	-0.353473
12.7933	156.896	-0.353555
12.7950	156.912	-0.353675
12.7967	156.929	-0.353762
12.7983	156.945	-0.353883
12.8000	156.962	-0.354057
12.8017	156.978	-0.354253
12.8033	156.996	-0.354384
12.8050	157.013	-0.354449
12.8067	157.030	-0.354482
12.8083	157.046	-0.354517
12.8100	157.063	-0.354543
12.8117	157.080	-0.354573
12.8133	157.097	-0.354611
12.8150	157.112	-0.354648
12.8167	157.129	-0.354728
12.8183	157.146	-0.354887
12.8200	157.164	-0.355234
12.8217	157.180	-0.355523
12.8233	157.196	-0.355881
12.8250	157.212	-0.356119
12.8267	157.229	-0.356291
12.8283	157.246	-0.356407
12.8300	157.263	-0.356538
12.8317	157.279	-0.356682
12.8333	157.295	-0.356793
12.8350	157.313	-0.356874
12.8367	157.329	-0.356971
12.8383	157.346	-0.357039
12.8400	157.363	-0.357089
12.8417	157.380	-0.357122
12.8433	157.396	-0.357191
12.8450	157.413	-0.357250
12.8467	157.430	-0.357290
12.8483	157.446	-0.357323
12.8500	157.462	-0.357387
12.8517	157.480	-0.357524
12.8533	157.496	-0.357620
12.8550	157.512	-0.357820
12.8567	157.530	-0.358043
12.8583	157.547	-0.358372
12.8600	157.562	-0.358731
12.8617	157.579	-0.359035
12.8633	157.596	-0.359319
12.8650	157.613	-0.359556
12.8667	157.628	-0.359737
12.8683	157.645	-0.360016
12.8700	157.663	-0.360314
12.8717	157.680	-0.360454
12.8733	157.696	-0.360582
12.8750	157.713	-0.360697
12.8767	157.729	-0.360767
12.8783	157.746	-0.360818
12.8800	157.763	-0.360849
12.8817	157.778	-0.360936
12.8833	157.796	-0.360968
12.8850	157.813	-0.361009
12.8867	157.829	-0.361140
12.8883	157.846	-0.361455
12.8900	157.863	-0.361954
12.8917	157.880	-0.362397
12.8933	157.896	-0.362825
12.8950	157.913	
12.8967	157.930	
12.8983	157.946	
12.9000	157.962	
12.9017	157.979	
12.9033	157.996	
12.9050	158.012	
12.9067	158.029	
12.9083	158.046	
12.9100	158.063	
12.9117	158.079	
12.9133	158.097	
12.9150	158.113	
12.9167	158.130	
12.9183	158.146	
12.9200	158.163	
12.9217	158.179	
12.9233	158.195	
12.9250	158.213	
12.9267	158.229	
12.9283	158.246	
12.9300	158.263	
12.9317	158.279	
12.9333	158.296	
12.9350	158.312	
12.9367	158.329	
12.9383	158.346	
12.9400	158.363	
12.9417	158.379	
12.9433	158.396	
12.9450		
12.9467		
12.9483		
12.9500		
12.9517		

